TimeStamp,Delta_TP9,Delta_AF7,Delta_AF8,Delta_TP10,Theta_TP9,Theta_AF7,Theta_AF8,Theta_TP10,Alpha_TP9,Alpha_AF7,Alpha_AF8,Alpha_TP10,Beta_TP9,Beta_AF7,Beta_AF8,Beta_TP10,Gamma_TP9,Gamma_AF7,Gamma_AF8,Gamma_TP10,RAW_TP9,RAW_AF7,RAW_AF8,RAW_TP10,AUX_RIGHT,Accelerometer_X,Accelerometer_Y,Accelerometer_Z,Gyro_X,Gyro_Y,Gyro_Z,HeadBandOn,HSI_TP9,HSI_AF7,HSI_AF8,HSI_TP10,Battery,Elements
2017-04-05 11:44:58.442,1.108132061326678,-0.002385053257598814,0.7663099965951906,0.04556798438081018,0.9451164811253875,-0.1142322589193191,0.1137533354678317,0.2535229413115742,0.8138504818862063,-0.2765399840364167,0.06232252350597493,0.4209939519436098,0.7157310906248658,-0.1110950865878165,0.07369457343785331,0.03962616529330986,0.467913417708759,-0.4504979467642878,0.05492927628692844,-0.1842228853197592,828.4249084249085,855.8241758241759,840.9157509157509,840.5128205128206,847.3626373626374,0.215088,0.440369,0.882507,-1.517792,4.568329,7.932892,1,1,1,1,1,92.484375
2017-04-05 11:44:58.444,1.108132061326678,-0.002385053257598814,0.7663099965951906,0.04556798438081018,0.9451164811253875,-0.1142322589193191,0.1137533354678317,0.2535229413115742,0.8138504818862063,-0.2765399840364167,0.06232252350597493,0.4209939519436098,0.7157310906248658,-0.1110950865878165,0.07369457343785331,0.03962616529330986,0.467913417708759,-0.4504979467642878,0.05492927628692844,-0.1842228853197592,857.8388278388279,857.032967032967,842.1245421245421,838.4981684981685,840.1098901098901,0.215088,0.440369,0.882507,-1.517792,4.568329,7.932892,1,1,1,1,1,92.484375
2017-04-05 11:44:58.445,1.108132061326678,-0.002385053257598814,0.7663099965951906,0.04556798438081018,0.9451164811253875,-0.1142322589193191,0.1137533354678317,0.2535229413115742,0.8138504818862063,-0.2765399840364167,0.06232252350597493,0.4209939519436098,0.7157310906248658,-0.1110950865878165,0.07369457343785331,0.03962616529330986,0.467913417708759,-0.4504979467642878,0.05492927628692844,-0.1842228853197592,848.974358974359,857.4358974358975,842.9304029304029,837.6923076923077,828.4249084249085,0.215088,0.440369,0.882507,-1.517792,4.568329,7.932892,1,1,1,1,1,92.484375
2017-04-05 11:44:58.447,1.108132061326678,-0.002385053257598814,0.7663099965951906,0.04556798438081018,0.9451164811253875,-0.1142322589193191,0.1137533354678317,0.2535229413115742,0.8138504818862063,-0.2765399840364167,0.06232252350597493,0.4209939519436098,0.7157310906248658,-0.1110950865878165,0.07369457343785331,0.03962616529330986,0.467913417708759,-0.4504979467642878,0.05492927628692844,-0.1842228853197592,829.6336996336996,858.6446886446887,840.9157509157509,846.5567765567765,846.5567765567765,0.215088,0.440369,0.882507,-1.517792,4.568329,7.932892,1,1,1,1,1,92.484375
2017-04-05 11:44:58.448,1.108132061326678,-0.002385053257598814,0.7663099965951906,0.04556798438081018,0.9451164811253875,-0.1142322589193191,0.1137533354678317,0.2535229413115742,0.8138504818862063,-0.2765399840364167,0.06232252350597493,0.4209939519436098,0.7157310906248658,-0.1110950865878165,0.07369457343785331,0.03962616529330986,0.467913417708759,-0.4504979467642878,0.05492927628692844,-0.1842228853197592,826.007326007326,860.2564102564103,838.901098901099,848.974358974359,864.6886446886447,0.215088,0.440369,0.882507,-1.517792,4.568329,7.932892,1,1,1,1,1,92.484375
2017-04-05 11:44:58.449,1.108132061326678,-0.002385053257598814,0.7663099965951906,0.04556798438081018,0.9451164811253875,-0.1142322589193191,0.1137533354678317,0.2535229413115742,0.8138504818862063,-0.2765399840364167,0.06232252350597493,0.4209939519436098,0.7157310906248658,-0.1110950865878165,0.07369457343785331,0.03962616529330986,0.467913417708759,-0.4504979467642878,0.05492927628692844,-0.1842228853197592,848.974358974359,861.4652014652015,835.2747252747253,836.8864468864469,864.2857142857143,0.215088,0.440369,0.882507,-1.517792,4.568329,7.932892,1,1,1,1,1,92.484375
2017-04-05 11:44:58.451,1.108132061326678,-0.002385053257598814,0.7663099965951906,0.04556798438081018,0.9451164811253875,-0.1142322589193191,0.1137533354678317,0.2535229413115742,0.8138504818862063,-0.2765399840364167,0.06232252350597493,0.4209939519436098,0.7157310906248658,-0.1110950865878165,0.07369457343785331,0.03962616529330986,0.467913417708759,-0.4504979467642878,0.05492927628692844,-0.1842228853197592,860.6593406593407,860.2564102564103,832.4542124542124,842.9304029304029,846.959706959707,0.215088,0.440369,0.882507,-1.517792,4.568329,7.932892,1,1,1,1,1,92.484375
2017-04-05 11:44:58.453,1.108132061326678,-0.002385053257598814,0.7663099965951906,0.04556798438081018,0.9451164811253875,-0.1142322589193191,0.1137533354678317,0.2535229413115742,0.8138504818862063,-0.2765399840364167,0.06232252350597493,0.4209939519436098,0.7157310906248658,-0.1110950865878165,0.07369457343785331,0.03962616529330986,0.467913417708759,-0.4504979467642878,0.05492927628692844,-0.1842228853197592,832.4542124542124,859.047619047619,830.0366300366301,841.7216117216118,812.3076923076924,0.215088,0.440369,0.882507,-1.517792,4.568329,7.932892,1,1,1,1,1,92.484375
2017-04-05 11:44:58.454,1.108132061326678,-0.002385053257598814,0.7663099965951906,0.04556798438081018,0.9451164811253875,-0.1142322589193191,0.1137533354678317,0.2535229413115742,0.8138504818862063,-0.2765399840364167,0.06232252350597493,0.4209939519436098,0.7157310906248658,-0.1110950865878165,0.07369457343785331,0.03962616529330986,0.467913417708759,-0.4504979467642878,0.05492927628692844,-0.1842228853197592,830.4395604395604,859.8534798534798,837.2893772893773,840.5128205128206,834.0659340659341,0.215088,0.440369,0.882507,-1.517792,4.568329,7.932892,1,1,1,1,1,92.484375
2017-04-05 11:44:58.456,1.108132061326678,-0.002385053257598814,0.7663099965951906,0.04556798438081018,0.9451164811253875,-0.1142322589193191,0.1137533354678317,0.2535229413115742,0.8138504818862063,-0.2765399840364167,0.06232252350597493,0.4209939519436098,0.7157310906248658,-0.1110950865878165,0.07369457343785331,0.03962616529330986,0.467913417708759,-0.4504979467642878,0.05492927628692844,-0.1842228853197592,853.8095238095239,861.4652014652015,839.7069597069598,844.1391941391942,855.4212454212454,0.215088,0.440369,0.882507,-1.517792,4.568329,7.932892,1,1,1,1,1,92.484375
2017-04-05 11:44:58.458,1.108132061326678,-0.002385053257598814,0.7663099965951906,0.04556798438081018,0.9451164811253875,-0.1142322589193191,0.1137533354678317,0.2535229413115742,0.8138504818862063,-0.2765399840364167,0.06232252350597493,0.4209939519436098,0.7157310906248658,-0.1110950865878165,0.07369457343785331,0.03962616529330986,0.467913417708759,-0.4504979467642878,0.05492927628692844,-0.1842228853197592,878.7912087912089,864.6886446886447,838.901098901099,844.9450549450549,845.3479853479854,0.215088,0.440369,0.882507,-1.517792,4.568329,7.932892,1,1,1,1,1,92.484375
2017-04-05 11:44:58.459,1.108132061326678,-0.002385053257598814,0.7663099965951906,0.04556798438081018,0.9451164811253875,-0.1142322589193191,0.1137533354678317,0.2535229413115742,0.8138504818862063,-0.2765399840364167,0.06232252350597493,0.4209939519436098,0.7157310906248658,-0.1110950865878165,0.07369457343785331,0.03962616529330986,0.467913417708759,-0.4504979467642878,0.05492927628692844,-0.1842228853197592,859.047619047619,862.2710622710623,844.9450549450549,854.6153846153846,843.7362637362637,0.215088,0.440369,0.882507,-1.517792,4.568329,7.932892,1,1,1,1,1,92.484375
2017-04-05 11:44:58.461,1.108132061326678,-0.002385053257598814,0.7663099965951906,0.04556798438081018,0.9451164811253875,-0.1142322589193191,0.1137533354678317,0.2535229413115742,0.8138504818862063,-0.2765399840364167,0.06232252350597493,0.4209939519436098,0.7157310906248658,-0.1110950865878165,0.07369457343785331,0.03962616529330986,0.467913417708759,-0.4504979467642878,0.05492927628692844,-0.1842228853197592,838.901098901099,859.8534798534798,843.7362637362637,852.6007326007326,841.3186813186813,0.214783,0.428284,0.888489,-2.213135,4.089813,8.725433,1,1,1,1,1,92.484375
2017-04-05 11:44:58.462,1.108132061326678,-0.002385053257598814,0.7663099965951906,0.04556798438081018,0.9451164811253875,-0.1142322589193191,0.1137533354678317,0.2535229413115742,0.8138504818862063,-0.2765399840364167,0.06232252350597493,0.4209939519436098,0.7157310906248658,-0.1110950865878165,0.07369457343785331,0.03962616529330986,0.467913417708759,-0.4504979467642878,0.05492927628692844,-0.1842228853197592,853.4065934065934,859.8534798534798,835.6776556776557,844.5421245421246,833.6630036630037,0.214783,0.428284,0.888489,-2.213135,4.089813,8.725433,1,1,1,1,1,92.484375
2017-04-05 11:44:58.463,1.108132061326678,-0.002385053257598814,0.7663099965951906,0.04556798438081018,0.9451164811253875,-0.1142322589193191,0.1137533354678317,0.2535229413115742,0.8138504818862063,-0.2765399840364167,0.06232252350597493,0.4209939519436098,0.7157310906248658,-0.1110950865878165,0.07369457343785331,0.03962616529330986,0.467913417708759,-0.4504979467642878,0.05492927628692844,-0.1842228853197592,884.0293040293041,861.0622710622711,837.6923076923077,851.3919413919414,813.919413919414,0.214783,0.428284,0.888489,-2.213135,4.089813,8.725433,1,1,1,1,1,92.484375
2017-04-05 11:44:58.464,1.108132061326678,-0.002385053257598814,0.7663099965951906,0.04556798438081018,0.9451164811253875,-0.1142322589193191,0.1137533354678317,0.2535229413115742,0.8138504818862063,-0.2765399840364167,0.06232252350597493,0.4209939519436098,0.7157310906248658,-0.1110950865878165,0.07369457343785331,0.03962616529330986,0.467913417708759,-0.4504979467642878,0.05492927628692844,-0.1842228853197592,880,863.4798534798535,840.9157509157509,862.6739926739926,818.7545787545788,0.214783,0.428284,0.888489,-2.213135,4.089813,8.725433,1,1,1,1,1,92.484375
2017-04-05 11:44:58.465,1.108132061326678,-0.002385053257598814,0.7663099965951906,0.04556798438081018,0.9451164811253875,-0.1142322589193191,0.1137533354678317,0.2535229413115742,0.8138504818862063,-0.2765399840364167,0.06232252350597493,0.4209939519436098,0.7157310906248658,-0.1110950865878165,0.07369457343785331,0.03962616529330986,0.467913417708759,-0.4504979467642878,0.05492927628692844,-0.1842228853197592,831.2454212454213,862.2710622710623,839.3040293040293,865.0915750915751,873.5531135531136,0.214783,0.428284,0.888489,-2.213135,4.089813,8.725433,1,1,1,1,1,92.484375
2017-04-05 11:44:58.466,1.108132061326678,-0.002385053257598814,0.7663099965951906,0.04556798438081018,0.9451164811253875,-0.1142322589193191,0.1137533354678317,0.2535229413115742,0.8138504818862063,-0.2765399840364167,0.06232252350597493,0.4209939519436098,0.7157310906248658,-0.1110950865878165,0.07369457343785331,0.03962616529330986,0.467913417708759,-0.4504979467642878,0.05492927628692844,-0.1842228853197592,819.5604395604396,860.6593406593407,840.5128205128206,848.974358974359,880.4029304029305,0.214783,0.428284,0.888489,-2.213135,4.089813,8.725433,1,1,1,1,1,92.484375
2017-04-05 11:44:58.467,1.108132061326678,-0.002385053257598814,0.7663099965951906,0.04556798438081018,0.9451164811253875,-0.1142322589193191,0.1137533354678317,0.2535229413115742,0.8138504818862063,-0.2765399840364167,0.06232252350597493,0.4209939519436098,0.7157310906248658,-0.1110950865878165,0.07369457343785331,0.03962616529330986,0.467913417708759,-0.4504979467642878,0.05492927628692844,-0.1842228853197592,853.8095238095239,860.6593406593407,841.3186813186813,841.3186813186813,847.3626373626374,0.214783,0.428284,0.888489,-2.213135,4.089813,8.725433,1,1,1,1,1,92.484375
2017-04-05 11:44:58.467,1.108132061326678,-0.002385053257598814,0.7663099965951906,0.04556798438081018,0.9451164811253875,-0.1142322589193191,0.1137533354678317,0.2535229413115742,0.8138504818862063,-0.2765399840364167,0.06232252350597493,0.4209939519436098,0.7157310906248658,-0.1110950865878165,0.07369457343785331,0.03962616529330986,0.467913417708759,-0.4504979467642878,0.05492927628692844,-0.1842228853197592,873.1501831501831,860.2564102564103,848.5714285714286,849.7802197802198,848.974358974359,0.214783,0.428284,0.888489,-2.213135,4.089813,8.725433,1,1,1,1,1,92.484375
2017-04-05 11:44:58.468,1.108132061326678,-0.002385053257598814,0.7663099965951906,0.04556798438081018,0.9451164811253875,-0.1142322589193191,0.1137533354678317,0.2535229413115742,0.8138504818862063,-0.2765399840364167,0.06232252350597493,0.4209939519436098,0.7157310906248658,-0.1110950865878165,0.07369457343785331,0.03962616529330986,0.467913417708759,-0.4504979467642878,0.05492927628692844,-0.1842228853197592,843.3333333333334,858.6446886446887,849.7802197802198,854.6153846153846,831.6483516483516,0.214783,0.428284,0.888489,-2.213135,4.089813,8.725433,1,1,1,1,1,92.484375
2017-04-05 11:44:58.469,1.108132061326678,-0.002385053257598814,0.7663099965951906,0.04556798438081018,0.9451164811253875,-0.1142322589193191,0.1137533354678317,0.2535229413115742,0.8138504818862063,-0.2765399840364167,0.06232252350597493,0.4209939519436098,0.7157310906248658,-0.1110950865878165,0.07369457343785331,0.03962616529330986,0.467913417708759,-0.4504979467642878,0.05492927628692844,-0.1842228853197592,794.5787545787546,860.6593406593407,840.5128205128206,853.8095238095239,816.7399267399268,0.214783,0.428284,0.888489,-2.213135,4.089813,8.725433,1,1,1,1,1,92.484375
2017-04-05 11:44:58.469,1.108132061326678,-0.002385053257598814,0.7663099965951906,0.04556798438081018,0.9451164811253875,-0.1142322589193191,0.1137533354678317,0.2535229413115742,0.8138504818862063,-0.2765399840364167,0.06232252350597493,0.4209939519436098,0.7157310906248658,-0.1110950865878165,0.07369457343785331,0.03962616529330986,0.467913417708759,-0.4504979467642878,0.05492927628692844,-0.1842228853197592,832.8571428571429,860.6593406593407,841.7216117216118,839.7069597069598,842.5274725274726,0.214783,0.428284,0.888489,-2.213135,4.089813,8.725433,1,1,1,1,1,92.484375
2017-04-05 11:44:58.470,1.108132061326678,-0.002385053257598814,0.7663099965951906,0.04556798438081018,0.9451164811253875,-0.1142322589193191,0.1137533354678317,0.2535229413115742,0.8138504818862063,-0.2765399840364167,0.06232252350597493,0.4209939519436098,0.7157310906248658,-0.1110950865878165,0.07369457343785331,0.03962616529330986,0.467913417708759,-0.4504979467642878,0.05492927628692844,-0.1842228853197592,872.3443223443223,861.8681318681319,848.5714285714286,839.7069597069598,862.6739926739926,0.214783,0.428284,0.888489,-2.213135,4.089813,8.725433,1,1,1,1,1,92.484375
2017-04-05 11:44:58.471,1.108132061326678,-0.002385053257598814,0.7663099965951906,0.04556798438081018,0.9451164811253875,-0.1142322589193191,0.1137533354678317,0.2535229413115742,0.8138504818862063,-0.2765399840364167,0.06232252350597493,0.4209939519436098,0.7157310906248658,-0.1110950865878165,0.07369457343785331,0.03962616529330986,0.467913417708759,-0.4504979467642878,0.05492927628692844,-0.1842228853197592,836.0805860805862,861.4652014652015,847.3626373626374,850.1831501831502,870.3296703296703,0.222290,0.437988,0.872314,-2.459869,4.104767,9.704895,1,1,1,1,1,92.484375
2017-04-05 11:44:58.475,1.108132061326678,-0.002385053257598814,0.7663099965951906,0.04556798438081018,0.9451164811253875,-0.1142322589193191,0.1137533354678317,0.2535229413115742,0.8168521005424728,-0.2566165710270131,0.06232252350597493,0.4623823648456958,0.7157310906248658,-0.1110950865878165,0.07369457343785331,0.03962616529330986,0.467913417708759,-0.4504979467642878,0.05492927628692844,-0.1842228853197592,836.0805860805862,861.4652014652015,847.3626373626374,850.1831501831502,870.3296703296703,0.222290,0.437988,0.872314,-2.459869,4.104767,9.704895,1,1,1,1,1,92.484375
2017-04-05 11:44:58.476,1.108132061326678,-0.002385053257598814,0.7663099965951906,0.04556798438081018,0.9451164811253875,-0.1142322589193191,0.1137533354678317,0.2535229413115742,0.8168521005424728,-0.2566165710270131,0.06232252350597493,0.4623823648456958,0.7089098972829685,-0.1207905230543952,0.04982888557917051,0.02953980872308365,0.467913417708759,-0.4504979467642878,0.05492927628692844,-0.1842228853197592,836.0805860805862,861.4652014652015,847.3626373626374,850.1831501831502,870.3296703296703,0.222290,0.437988,0.872314,-2.459869,4.104767,9.704895,1,1,1,1,1,92.484375
2017-04-05 11:44:58.477,1.114727506893249,-0.1022438775651212,0.6991928975485159,0.004316874147807514,0.9451164811253875,-0.1142322589193191,0.1137533354678317,0.2535229413115742,0.8168521005424728,-0.2566165710270131,0.06232252350597493,0.4623823648456958,0.7089098972829685,-0.1207905230543952,0.04982888557917051,0.02953980872308365,0.467913417708759,-0.4504979467642878,0.05492927628692844,-0.1842228853197592,836.0805860805862,861.4652014652015,847.3626373626374,850.1831501831502,870.3296703296703,0.222290,0.437988,0.872314,-2.459869,4.104767,9.704895,1,1,1,1,1,92.484375
2017-04-05 11:44:58.478,1.114727506893249,-0.1022438775651212,0.6991928975485159,0.004316874147807514,0.9377726921238591,-0.1263528919271928,0.09826979771585648,0.2822564659055313,0.8168521005424728,-0.2566165710270131,0.06232252350597493,0.4623823648456958,0.7089098972829685,-0.1207905230543952,0.04982888557917051,0.02953980872308365,0.467913417708759,-0.4504979467642878,0.05492927628692844,-0.1842228853197592,836.0805860805862,861.4652014652015,847.3626373626374,850.1831501831502,870.3296703296703,0.222290,0.437988,0.872314,-2.459869,4.104767,9.704895,1,1,1,1,1,92.484375
2017-04-05 11:44:58.478,1.114727506893249,-0.1022438775651212,0.6991928975485159,0.004316874147807514,0.9377726921238591,-0.1263528919271928,0.09826979771585648,0.2822564659055313,0.8168521005424728,-0.2566165710270131,0.06232252350597493,0.4623823648456958,0.7089098972829685,-0.1207905230543952,0.04982888557917051,0.02953980872308365,0.4458151299667081,-0.4478154700460375,0.04394368948300392,-0.1845539515189524,836.0805860805862,861.4652014652015,847.3626373626374,850.1831501831502,870.3296703296703,0.222290,0.437988,0.872314,-2.459869,4.104767,9.704895,1,1,1,1,1,92.484375
2017-04-05 11:44:58.472,1.114727506893249,-0.1022438775651212,0.6991928975485159,0.004316874147807514,0.9377726921238591,-0.1263528919271928,0.09826979771585648,0.2822564659055313,0.8168521005424728,-0.2566165710270131,0.06232252350597493,0.4623823648456958,0.7089098972829685,-0.1207905230543952,0.04982888557917051,0.02953980872308365,0.4458151299667081,-0.4478154700460375,0.04394368948300392,-0.1845539515189524,816.7399267399268,859.4505494505495,847.3626373626374,854.2124542124542,874.7619047619048,0.222290,0.437988,0.872314,-2.459869,4.104767,9.704895,1,1,1,1,1,92.484375
2017-04-05 11:44:58.480,1.114727506893249,-0.1022438775651212,0.6991928975485159,0.004316874147807514,0.9377726921238591,-0.1263528919271928,0.09826979771585648,0.2822564659055313,0.8168521005424728,-0.2566165710270131,0.06232252350597493,0.4623823648456958,0.7089098972829685,-0.1207905230543952,0.04982888557917051,0.02953980872308365,0.4458151299667081,-0.4478154700460375,0.04394368948300392,-0.1845539515189524,837.6923076923077,858.6446886446887,848.5714285714286,852.6007326007326,881.6117216117217,0.222290,0.437988,0.872314,-2.459869,4.104767,9.704895,1,1,1,1,1,92.484375
2017-04-05 11:44:58.481,1.114727506893249,-0.1022438775651212,0.6991928975485159,0.004316874147807514,0.9377726921238591,-0.1263528919271928,0.09826979771585648,0.2822564659055313,0.8168521005424728,-0.2566165710270131,0.06232252350597493,0.4623823648456958,0.7089098972829685,-0.1207905230543952,0.04982888557917051,0.02953980872308365,0.4458151299667081,-0.4478154700460375,0.04394368948300392,-0.1845539515189524,863.0769230769231,861.0622710622711,848.5714285714286,839.7069597069598,874.7619047619048,0.222290,0.437988,0.872314,-2.459869,4.104767,9.704895,1,1,1,1,1,92.484375
2017-04-05 11:44:58.481,1.114727506893249,-0.1022438775651212,0.6991928975485159,0.004316874147807514,0.9377726921238591,-0.1263528919271928,0.09826979771585648,0.2822564659055313,0.8168521005424728,-0.2566165710270131,0.06232252350597493,0.4623823648456958,0.7089098972829685,-0.1207905230543952,0.04982888557917051,0.02953980872308365,0.4458151299667081,-0.4478154700460375,0.04394368948300392,-0.1845539515189524,841.3186813186813,860.6593406593407,845.7509157509157,843.3333333333334,851.3919413919414,0.222290,0.437988,0.872314,-2.459869,4.104767,9.704895,1,1,1,1,1,92.484375
2017-04-05 11:44:58.482,1.114727506893249,-0.1022438775651212,0.6991928975485159,0.004316874147807514,0.9377726921238591,-0.1263528919271928,0.09826979771585648,0.2822564659055313,0.8168521005424728,-0.2566165710270131,0.06232252350597493,0.4623823648456958,0.7089098972829685,-0.1207905230543952,0.04982888557917051,0.02953980872308365,0.4458151299667081,-0.4478154700460375,0.04394368948300392,-0.1845539515189524,811.5018315018315,856.2271062271062,849.7802197802198,848.974358974359,867.1062271062272,0.222290,0.437988,0.872314,-2.459869,4.104767,9.704895,1,1,1,1,1,92.484375
2017-04-05 11:44:58.483,1.114727506893249,-0.1022438775651212,0.6991928975485159,0.004316874147807514,0.9377726921238591,-0.1263528919271928,0.09826979771585648,0.2822564659055313,0.8168521005424728,-0.2566165710270131,0.06232252350597493,0.4623823648456958,0.7089098972829685,-0.1207905230543952,0.04982888557917051,0.02953980872308365,0.4458151299667081,-0.4478154700460375,0.04394368948300392,-0.1845539515189524,810.6959706959707,861.0622710622711,831.6483516483516,847.3626373626374,869.1208791208792,0.222290,0.437988,0.872314,-2.459869,4.104767,9.704895,1,1,1,1,1,92.484375
2017-04-05 11:44:58.484,1.114727506893249,-0.1022438775651212,0.6991928975485159,0.004316874147807514,0.9377726921238591,-0.1263528919271928,0.09826979771585648,0.2822564659055313,0.8168521005424728,-0.2566165710270131,0.06232252350597493,0.4623823648456958,0.7089098972829685,-0.1207905230543952,0.04982888557917051,0.02953980872308365,0.4458151299667081,-0.4478154700460375,0.04394368948300392,-0.1845539515189524,857.8388278388279,865.0915750915751,828.8278388278388,846.959706959707,872.3443223443223,0.222290,0.437988,0.872314,-2.459869,4.104767,9.704895,1,1,1,1,1,92.484375
2017-04-05 11:44:58.485,1.114727506893249,-0.1022438775651212,0.6991928975485159,0.004316874147807514,0.9377726921238591,-0.1263528919271928,0.09826979771585648,0.2822564659055313,0.8168521005424728,-0.2566165710270131,0.06232252350597493,0.4623823648456958,0.7089098972829685,-0.1207905230543952,0.04982888557917051,0.02953980872308365,0.4458151299667081,-0.4478154700460375,0.04394368948300392,-0.1845539515189524,867.1062271062272,859.4505494505495,854.6153846153846,830.0366300366301,863.4798534798535,0.222290,0.437988,0.872314,-2.459869,4.104767,9.704895,1,1,1,1,1,92.484375
2017-04-05 11:44:58.485,1.114727506893249,-0.1022438775651212,0.6991928975485159,0.004316874147807514,0.9377726921238591,-0.1263528919271928,0.09826979771585648,0.2822564659055313,0.8168521005424728,-0.2566165710270131,0.06232252350597493,0.4623823648456958,0.7089098972829685,-0.1207905230543952,0.04982888557917051,0.02953980872308365,0.4458151299667081,-0.4478154700460375,0.04394368948300392,-0.1845539515189524,810.2930402930403,854.2124542124542,856.2271062271062,838.4981684981685,843.7362637362637,0.222290,0.437988,0.872314,-2.459869,4.104767,9.704895,1,1,1,1,1,92.484375
2017-04-05 11:44:58.486,1.114727506893249,-0.1022438775651212,0.6991928975485159,0.004316874147807514,0.9377726921238591,-0.1263528919271928,0.09826979771585648,0.2822564659055313,0.8168521005424728,-0.2566165710270131,0.06232252350597493,0.4623823648456958,0.7089098972829685,-0.1207905230543952,0.04982888557917051,0.02953980872308365,0.4458151299667081,-0.4478154700460375,0.04394368948300392,-0.1845539515189524,784.5054945054945,853.0036630036631,852.1978021978023,840.9157509157509,845.7509157509157,0.222290,0.437988,0.872314,-2.459869,4.104767,9.704895,1,1,1,1,1,92.484375
2017-04-05 11:44:58.487,1.114727506893249,-0.1022438775651212,0.6991928975485159,0.004316874147807514,0.9377726921238591,-0.1263528919271928,0.09826979771585648,0.2822564659055313,0.8168521005424728,-0.2566165710270131,0.06232252350597493,0.4623823648456958,0.7089098972829685,-0.1207905230543952,0.04982888557917051,0.02953980872308365,0.4458151299667081,-0.4478154700460375,0.04394368948300392,-0.1845539515189524,807.8754578754579,858.2417582417582,844.5421245421246,826.8131868131868,784.1025641025641,0.222290,0.437988,0.872314,-2.459869,4.104767,9.704895,1,1,1,1,1,92.484375
2017-04-05 11:44:58.488,1.114727506893249,-0.1022438775651212,0.6991928975485159,0.004316874147807514,0.9377726921238591,-0.1263528919271928,0.09826979771585648,0.2822564659055313,0.8168521005424728,-0.2566165710270131,0.06232252350597493,0.4623823648456958,0.7089098972829685,-0.1207905230543952,0.04982888557917051,0.02953980872308365,0.4458151299667081,-0.4478154700460375,0.04394368948300392,-0.1845539515189524,844.9450549450549,860.6593406593407,841.3186813186813,833.2600732600733,806.2637362637363,0.220276,0.441162,0.876404,0.381317,3.977661,11.192780,1,1,1,1,1,92.484375
2017-04-05 11:44:58.489,1.114727506893249,-0.1022438775651212,0.6991928975485159,0.004316874147807514,0.9377726921238591,-0.1263528919271928,0.09826979771585648,0.2822564659055313,0.8168521005424728,-0.2566165710270131,0.06232252350597493,0.4623823648456958,0.7089098972829685,-0.1207905230543952,0.04982888557917051,0.02953980872308365,0.4458151299667081,-0.4478154700460375,0.04394368948300392,-0.1845539515189524,821.1721611721612,857.4358974358975,840.5128205128206,834.0659340659341,857.032967032967,0.220276,0.441162,0.876404,0.381317,3.977661,11.192780,1,1,1,1,1,92.484375
2017-04-05 11:44:58.489,1.114727506893249,-0.1022438775651212,0.6991928975485159,0.004316874147807514,0.9377726921238591,-0.1263528919271928,0.09826979771585648,0.2822564659055313,0.8168521005424728,-0.2566165710270131,0.06232252350597493,0.4623823648456958,0.7089098972829685,-0.1207905230543952,0.04982888557917051,0.02953980872308365,0.4458151299667081,-0.4478154700460375,0.04394368948300392,-0.1845539515189524,783.6996336996338,857.032967032967,842.9304029304029,834.0659340659341,850.5860805860806,0.220276,0.441162,0.876404,0.381317,3.977661,11.192780,1,1,1,1,1,92.484375
2017-04-05 11:44:58.490,1.114727506893249,-0.1022438775651212,0.6991928975485159,0.004316874147807514,0.9377726921238591,-0.1263528919271928,0.09826979771585648,0.2822564659055313,0.8168521005424728,-0.2566165710270131,0.06232252350597493,0.4623823648456958,0.7089098972829685,-0.1207905230543952,0.04982888557917051,0.02953980872308365,0.4458151299667081,-0.4478154700460375,0.04394368948300392,-0.1845539515189524,806.6666666666667,859.047619047619,836.8864468864469,835.6776556776557,880.4029304029305,0.220276,0.441162,0.876404,0.381317,3.977661,11.192780,1,1,1,1,1,92.484375
2017-04-05 11:44:58.491,1.114727506893249,-0.1022438775651212,0.6991928975485159,0.004316874147807514,0.9377726921238591,-0.1263528919271928,0.09826979771585648,0.2822564659055313,0.8168521005424728,-0.2566165710270131,0.06232252350597493,0.4623823648456958,0.7089098972829685,-0.1207905230543952,0.04982888557917051,0.02953980872308365,0.4458151299667081,-0.4478154700460375,0.04394368948300392,-0.1845539515189524,831.6483516483516,855.4212454212454,838.0952380952381,837.2893772893773,874.7619047619048,0.220276,0.441162,0.876404,0.381317,3.977661,11.192780,1,1,1,1,1,92.484375
2017-04-05 11:44:58.491,1.114727506893249,-0.1022438775651212,0.6991928975485159,0.004316874147807514,0.9377726921238591,-0.1263528919271928,0.09826979771585648,0.2822564659055313,0.8168521005424728,-0.2566165710270131,0.06232252350597493,0.4623823648456958,0.7089098972829685,-0.1207905230543952,0.04982888557917051,0.02953980872308365,0.4458151299667081,-0.4478154700460375,0.04394368948300392,-0.1845539515189524,816.3369963369963,850.5860805860806,842.5274725274726,840.5128205128206,890.0732600732601,0.220276,0.441162,0.876404,0.381317,3.977661,11.192780,1,1,1,1,1,92.484375
2017-04-05 11:44:58.492,1.114727506893249,-0.1022438775651212,0.6991928975485159,0.004316874147807514,0.9377726921238591,-0.1263528919271928,0.09826979771585648,0.2822564659055313,0.8168521005424728,-0.2566165710270131,0.06232252350597493,0.4623823648456958,0.7089098972829685,-0.1207905230543952,0.04982888557917051,0.02953980872308365,0.4458151299667081,-0.4478154700460375,0.04394368948300392,-0.1845539515189524,803.4432234432235,859.047619047619,838.4981684981685,838.0952380952381,872.3443223443223,0.220276,0.441162,0.876404,0.381317,3.977661,11.192780,1,1,1,1,1,92.484375
2017-04-05 11:44:58.493,1.114727506893249,-0.1022438775651212,0.6991928975485159,0.004316874147807514,0.9377726921238591,-0.1263528919271928,0.09826979771585648,0.2822564659055313,0.8168521005424728,-0.2566165710270131,0.06232252350597493,0.4623823648456958,0.7089098972829685,-0.1207905230543952,0.04982888557917051,0.02953980872308365,0.4458151299667081,-0.4478154700460375,0.04394368948300392,-0.1845539515189524,823.992673992674,861.4652014652015,836.8864468864469,829.2307692307693,844.9450549450549,0.220276,0.441162,0.876404,0.381317,3.977661,11.192780,1,1,1,1,1,92.484375
2017-04-05 11:44:58.494,1.114727506893249,-0.1022438775651212,0.6991928975485159,0.004316874147807514,0.9377726921238591,-0.1263528919271928,0.09826979771585648,0.2822564659055313,0.8168521005424728,-0.2566165710270131,0.06232252350597493,0.4623823648456958,0.7089098972829685,-0.1207905230543952,0.04982888557917051,0.02953980872308365,0.4458151299667081,-0.4478154700460375,0.04394368948300392,-0.1845539515189524,845.3479853479854,855.8241758241759,832.8571428571429,831.2454212454213,867.1062271062272,0.220276,0.441162,0.876404,0.381317,3.977661,11.192780,1,1,1,1,1,92.484375
2017-04-05 11:44:58.494,1.114727506893249,-0.1022438775651212,0.6991928975485159,0.004316874147807514,0.9377726921238591,-0.1263528919271928,0.09826979771585648,0.2822564659055313,0.8168521005424728,-0.2566165710270131,0.06232252350597493,0.4623823648456958,0.7089098972829685,-0.1207905230543952,0.04982888557917051,0.02953980872308365,0.4458151299667081,-0.4478154700460375,0.04394368948300392,-0.1845539515189524,812.7106227106227,859.047619047619,830.0366300366301,838.0952380952381,861.4652014652015,0.220276,0.441162,0.876404,0.381317,3.977661,11.192780,1,1,1,1,1,92.484375
2017-04-05 11:44:58.495,1.114727506893249,-0.1022438775651212,0.6991928975485159,0.004316874147807514,0.9377726921238591,-0.1263528919271928,0.09826979771585648,0.2822564659055313,0.8168521005424728,-0.2566165710270131,0.06232252350597493,0.4623823648456958,0.7089098972829685,-0.1207905230543952,0.04982888557917051,0.02953980872308365,0.4458151299667081,-0.4478154700460375,0.04394368948300392,-0.1845539515189524,780.8791208791209,856.2271062271062,836.4835164835165,836.0805860805862,865.4945054945056,0.220276,0.441162,0.876404,0.381317,3.977661,11.192780,1,1,1,1,1,92.484375
2017-04-05 11:44:58.496,1.114727506893249,-0.1022438775651212,0.6991928975485159,0.004316874147807514,0.9377726921238591,-0.1263528919271928,0.09826979771585648,0.2822564659055313,0.8168521005424728,-0.2566165710270131,0.06232252350597493,0.4623823648456958,0.7089098972829685,-0.1207905230543952,0.04982888557917051,0.02953980872308365,0.4458151299667081,-0.4478154700460375,0.04394368948300392,-0.1845539515189524,788.9377289377289,856.6300366300367,840.5128205128206,833.2600732600733,858.6446886446887,0.220276,0.441162,0.876404,0.381317,3.977661,11.192780,1,1,1,1,1,92.484375
2017-04-05 11:44:58.497,1.114727506893249,-0.1022438775651212,0.6991928975485159,0.004316874147807514,0.9377726921238591,-0.1263528919271928,0.09826979771585648,0.2822564659055313,0.8168521005424728,-0.2566165710270131,0.06232252350597493,0.4623823648456958,0.7089098972829685,-0.1207905230543952,0.04982888557917051,0.02953980872308365,0.4458151299667081,-0.4478154700460375,0.04394368948300392,-0.1845539515189524,838.901098901099,861.4652014652015,838.901098901099,834.4688644688645,871.5384615384615,0.223511,0.449707,0.873230,0.942078,3.962708,9.749756,1,1,1,1,1,92.484375
2017-04-05 11:44:58.497,1.114727506893249,-0.1022438775651212,0.6991928975485159,0.004316874147807514,0.9377726921238591,-0.1263528919271928,0.09826979771585648,0.2822564659055313,0.8168521005424728,-0.2566165710270131,0.06232252350597493,0.4623823648456958,0.7089098972829685,-0.1207905230543952,0.04982888557917051,0.02953980872308365,0.4458151299667081,-0.4478154700460375,0.04394368948300392,-0.1845539515189524,839.3040293040293,861.4652014652015,843.3333333333334,841.3186813186813,874.7619047619048,0.223511,0.449707,0.873230,0.942078,3.962708,9.749756,1,1,1,1,1,92.484375
2017-04-05 11:44:58.498,1.114727506893249,-0.1022438775651212,0.6991928975485159,0.004316874147807514,0.9377726921238591,-0.1263528919271928,0.09826979771585648,0.2822564659055313,0.8168521005424728,-0.2566165710270131,0.06232252350597493,0.4623823648456958,0.7089098972829685,-0.1207905230543952,0.04982888557917051,0.02953980872308365,0.4458151299667081,-0.4478154700460375,0.04394368948300392,-0.1845539515189524,797.8021978021978,862.2710622710623,842.9304029304029,842.5274725274726,837.6923076923077,0.223511,0.449707,0.873230,0.942078,3.962708,9.749756,1,1,1,1,1,92.484375
2017-04-05 11:44:58.503,1.114727506893249,-0.1022438775651212,0.6991928975485159,0.004316874147807514,0.9377726921238591,-0.1263528919271928,0.09826979771585648,0.2822564659055313,0.8168521005424728,-0.2315010534746324,0.06252529755376969,0.5189929825410113,0.7089098972829685,-0.1207905230543952,0.04982888557917051,0.02953980872308365,0.4458151299667081,-0.4478154700460375,0.04394368948300392,-0.1845539515189524,797.8021978021978,862.2710622710623,842.9304029304029,842.5274725274726,837.6923076923077,0.223511,0.449707,0.873230,0.942078,3.962708,9.749756,1,1,1,1,1,92.484375
2017-04-05 11:44:58.504,1.114727506893249,-0.1022438775651212,0.6991928975485159,0.004316874147807514,0.9377726921238591,-0.1263528919271928,0.09826979771585648,0.2822564659055313,0.8168521005424728,-0.2315010534746324,0.06252529755376969,0.5189929825410113,0.7028570689913155,-0.1270521385892725,0.01743211150147695,0.02293132425657283,0.4458151299667081,-0.4478154700460375,0.04394368948300392,-0.1845539515189524,797.8021978021978,862.2710622710623,842.9304029304029,842.5274725274726,837.6923076923077,0.223511,0.449707,0.873230,0.942078,3.962708,9.749756,1,1,1,1,1,92.484375
2017-04-05 11:44:58.504,1.143275421063662,-0.1571447805169203,0.5918386022563786,-0.01320788763527625,0.9377726921238591,-0.1263528919271928,0.09826979771585648,0.2822564659055313,0.8168521005424728,-0.2315010534746324,0.06252529755376969,0.5189929825410113,0.7028570689913155,-0.1270521385892725,0.01743211150147695,0.02293132425657283,0.4458151299667081,-0.4478154700460375,0.04394368948300392,-0.1845539515189524,797.8021978021978,862.2710622710623,842.9304029304029,842.5274725274726,837.6923076923077,0.223511,0.449707,0.873230,0.942078,3.962708,9.749756,1,1,1,1,1,92.484375
2017-04-05 11:44:58.505,1.143275421063662,-0.1571447805169203,0.5918386022563786,-0.01320788763527625,0.917636245463319,-0.139392708727942,0.07496083509406824,0.3111521483902252,0.8168521005424728,-0.2315010534746324,0.06252529755376969,0.5189929825410113,0.7028570689913155,-0.1270521385892725,0.01743211150147695,0.02293132425657283,0.4458151299667081,-0.4478154700460375,0.04394368948300392,-0.1845539515189524,797.8021978021978,862.2710622710623,842.9304029304029,842.5274725274726,837.6923076923077,0.223511,0.449707,0.873230,0.942078,3.962708,9.749756,1,1,1,1,1,92.484375
2017-04-05 11:44:58.505,1.143275421063662,-0.1571447805169203,0.5918386022563786,-0.01320788763527625,0.917636245463319,-0.139392708727942,0.07496083509406824,0.3111521483902252,0.8168521005424728,-0.2315010534746324,0.06252529755376969,0.5189929825410113,0.7028570689913155,-0.1270521385892725,0.01743211150147695,0.02293132425657283,0.4218583952717271,-0.4421440841867516,0.03525135036002952,-0.1859910427347782,797.8021978021978,862.2710622710623,842.9304029304029,842.5274725274726,837.6923076923077,0.223511,0.449707,0.873230,0.942078,3.962708,9.749756,1,1,1,1,1,92.484375
2017-04-05 11:44:58.499,1.143275421063662,-0.1571447805169203,0.5918386022563786,-0.01320788763527625,0.917636245463319,-0.139392708727942,0.07496083509406824,0.3111521483902252,0.8168521005424728,-0.2315010534746324,0.06252529755376969,0.5189929825410113,0.7028570689913155,-0.1270521385892725,0.01743211150147695,0.02293132425657283,0.4218583952717271,-0.4421440841867516,0.03525135036002952,-0.1859910427347782,805.4578754578755,859.4505494505495,847.7655677655678,836.0805860805862,822.7838827838829,0.223511,0.449707,0.873230,0.942078,3.962708,9.749756,1,1,1,1,1,92.484375
2017-04-05 11:44:58.506,1.143275421063662,-0.1571447805169203,0.5918386022563786,-0.01320788763527625,0.917636245463319,-0.139392708727942,0.07496083509406824,0.3111521483902252,0.8168521005424728,-0.2315010534746324,0.06252529755376969,0.5189929825410113,0.7028570689913155,-0.1270521385892725,0.01743211150147695,0.02293132425657283,0.4218583952717271,-0.4421440841867516,0.03525135036002952,-0.1859910427347782,836.0805860805862,859.047619047619,850.1831501831502,836.4835164835165,838.901098901099,0.223511,0.449707,0.873230,0.942078,3.962708,9.749756,1,1,1,1,1,92.484375
2017-04-05 11:44:58.507,1.143275421063662,-0.1571447805169203,0.5918386022563786,-0.01320788763527625,0.917636245463319,-0.139392708727942,0.07496083509406824,0.3111521483902252,0.8168521005424728,-0.2315010534746324,0.06252529755376969,0.5189929825410113,0.7028570689913155,-0.1270521385892725,0.01743211150147695,0.02293132425657283,0.4218583952717271,-0.4421440841867516,0.03525135036002952,-0.1859910427347782,846.1538461538462,860.2564102564103,847.3626373626374,843.3333333333334,855.8241758241759,0.223511,0.449707,0.873230,0.942078,3.962708,9.749756,1,1,1,1,1,92.484375
2017-04-05 11:44:58.507,1.143275421063662,-0.1571447805169203,0.5918386022563786,-0.01320788763527625,0.917636245463319,-0.139392708727942,0.07496083509406824,0.3111521483902252,0.8168521005424728,-0.2315010534746324,0.06252529755376969,0.5189929825410113,0.7028570689913155,-0.1270521385892725,0.01743211150147695,0.02293132425657283,0.4218583952717271,-0.4421440841867516,0.03525135036002952,-0.1859910427347782,807.0695970695971,862.2710622710623,844.5421245421246,845.3479853479854,840.9157509157509,0.223511,0.449707,0.873230,0.942078,3.962708,9.749756,1,1,1,1,1,92.484375
2017-04-05 11:44:58.508,1.143275421063662,-0.1571447805169203,0.5918386022563786,-0.01320788763527625,0.917636245463319,-0.139392708727942,0.07496083509406824,0.3111521483902252,0.8168521005424728,-0.2315010534746324,0.06252529755376969,0.5189929825410113,0.7028570689913155,-0.1270521385892725,0.01743211150147695,0.02293132425657283,0.4218583952717271,-0.4421440841867516,0.03525135036002952,-0.1859910427347782,797.8021978021978,866.3003663003664,840.5128205128206,840.1098901098901,838.901098901099,0.223511,0.449707,0.873230,0.942078,3.962708,9.749756,1,1,1,1,1,92.484375
2017-04-05 11:44:58.508,1.143275421063662,-0.1571447805169203,0.5918386022563786,-0.01320788763527625,0.917636245463319,-0.139392708727942,0.07496083509406824,0.3111521483902252,0.8168521005424728,-0.2315010534746324,0.06252529755376969,0.5189929825410113,0.7028570689913155,-0.1270521385892725,0.01743211150147695,0.02293132425657283,0.4218583952717271,-0.4421440841867516,0.03525135036002952,-0.1859910427347782,836.4835164835165,865.8974358974359,842.9304029304029,836.4835164835165,855.4212454212454,0.223511,0.449707,0.873230,0.942078,3.962708,9.749756,1,1,1,1,1,92.484375
2017-04-05 11:44:58.509,1.143275421063662,-0.1571447805169203,0.5918386022563786,-0.01320788763527625,0.917636245463319,-0.139392708727942,0.07496083509406824,0.3111521483902252,0.8168521005424728,-0.2315010534746324,0.06252529755376969,0.5189929825410113,0.7028570689913155,-0.1270521385892725,0.01743211150147695,0.02293132425657283,0.4218583952717271,-0.4421440841867516,0.03525135036002952,-0.1859910427347782,851.3919413919414,867.1062271062272,845.7509157509157,836.0805860805862,866.7032967032967,0.223511,0.449707,0.873230,0.942078,3.962708,9.749756,1,1,1,1,1,92.484375
2017-04-05 11:44:58.509,1.143275421063662,-0.1571447805169203,0.5918386022563786,-0.01320788763527625,0.917636245463319,-0.139392708727942,0.07496083509406824,0.3111521483902252,0.8168521005424728,-0.2315010534746324,0.06252529755376969,0.5189929825410113,0.7028570689913155,-0.1270521385892725,0.01743211150147695,0.02293132425657283,0.4218583952717271,-0.4421440841867516,0.03525135036002952,-0.1859910427347782,832.8571428571429,866.7032967032967,850.5860805860806,840.9157509157509,857.032967032967,0.223511,0.449707,0.873230,0.942078,3.962708,9.749756,1,1,1,1,1,92.484375
2017-04-05 11:44:58.510,1.143275421063662,-0.1571447805169203,0.5918386022563786,-0.01320788763527625,0.917636245463319,-0.139392708727942,0.07496083509406824,0.3111521483902252,0.8168521005424728,-0.2315010534746324,0.06252529755376969,0.5189929825410113,0.7028570689913155,-0.1270521385892725,0.01743211150147695,0.02293132425657283,0.4218583952717271,-0.4421440841867516,0.03525135036002952,-0.1859910427347782,793.7728937728938,865.8974358974359,847.3626373626374,847.3626373626374,857.8388278388279,0.223511,0.449707,0.873230,0.942078,3.962708,9.749756,1,1,1,1,1,92.484375
2017-04-05 11:44:58.510,1.143275421063662,-0.1571447805169203,0.5918386022563786,-0.01320788763527625,0.917636245463319,-0.139392708727942,0.07496083509406824,0.3111521483902252,0.8168521005424728,-0.2315010534746324,0.06252529755376969,0.5189929825410113,0.7028570689913155,-0.1270521385892725,0.01743211150147695,0.02293132425657283,0.4218583952717271,-0.4421440841867516,0.03525135036002952,-0.1859910427347782,812.3076923076924,865.0915750915751,840.9157509157509,839.7069597069598,851.7948717948718,0.223511,0.449707,0.873230,0.942078,3.962708,9.749756,1,1,1,1,1,92.484375
2017-04-05 11:44:58.511,1.143275421063662,-0.1571447805169203,0.5918386022563786,-0.01320788763527625,0.917636245463319,-0.139392708727942,0.07496083509406824,0.3111521483902252,0.8168521005424728,-0.2315010534746324,0.06252529755376969,0.5189929825410113,0.7028570689913155,-0.1270521385892725,0.01743211150147695,0.02293132425657283,0.4218583952717271,-0.4421440841867516,0.03525135036002952,-0.1859910427347782,863.4798534798535,862.6739926739926,834.4688644688645,834.0659340659341,840.5128205128206,0.223511,0.449707,0.873230,0.942078,3.962708,9.749756,1,1,1,1,1,92.484375
2017-04-05 11:44:58.511,1.143275421063662,-0.1571447805169203,0.5918386022563786,-0.01320788763527625,0.917636245463319,-0.139392708727942,0.07496083509406824,0.3111521483902252,0.8168521005424728,-0.2315010534746324,0.06252529755376969,0.5189929825410113,0.7028570689913155,-0.1270521385892725,0.01743211150147695,0.02293132425657283,0.4218583952717271,-0.4421440841867516,0.03525135036002952,-0.1859910427347782,853.4065934065934,862.6739926739926,839.3040293040293,837.2893772893773,873.1501831501831,0.223511,0.449707,0.873230,0.942078,3.962708,9.749756,1,1,1,1,1,92.484375
2017-04-05 11:44:58.512,1.143275421063662,-0.1571447805169203,0.5918386022563786,-0.01320788763527625,0.917636245463319,-0.139392708727942,0.07496083509406824,0.3111521483902252,0.8168521005424728,-0.2315010534746324,0.06252529755376969,0.5189929825410113,0.7028570689913155,-0.1270521385892725,0.01743211150147695,0.02293132425657283,0.4218583952717271,-0.4421440841867516,0.03525135036002952,-0.1859910427347782,825.2014652014652,865.4945054945056,846.959706959707,844.9450549450549,866.7032967032967,0.223511,0.449707,0.873230,0.942078,3.962708,9.749756,1,1,1,1,1,92.484375
2017-04-05 11:44:58.512,1.143275421063662,-0.1571447805169203,0.5918386022563786,-0.01320788763527625,0.917636245463319,-0.139392708727942,0.07496083509406824,0.3111521483902252,0.8168521005424728,-0.2315010534746324,0.06252529755376969,0.5189929825410113,0.7028570689913155,-0.1270521385892725,0.01743211150147695,0.02293132425657283,0.4218583952717271,-0.4421440841867516,0.03525135036002952,-0.1859910427347782,823.992673992674,863.0769230769231,845.7509157509157,848.1684981684982,813.1135531135532,0.223511,0.449707,0.873230,0.942078,3.962708,9.749756,1,1,1,1,1,92.484375
2017-04-05 11:44:58.513,1.143275421063662,-0.1571447805169203,0.5918386022563786,-0.01320788763527625,0.917636245463319,-0.139392708727942,0.07496083509406824,0.3111521483902252,0.8168521005424728,-0.2315010534746324,0.06252529755376969,0.5189929825410113,0.7028570689913155,-0.1270521385892725,0.01743211150147695,0.02293132425657283,0.4218583952717271,-0.4421440841867516,0.03525135036002952,-0.1859910427347782,845.3479853479854,857.4358974358975,842.9304029304029,849.7802197802198,840.9157509157509,0.223511,0.449707,0.873230,0.942078,3.962708,9.749756,1,1,1,1,1,92.484375
2017-04-05 11:44:58.513,1.143275421063662,-0.1571447805169203,0.5918386022563786,-0.01320788763527625,0.917636245463319,-0.139392708727942,0.07496083509406824,0.3111521483902252,0.8168521005424728,-0.2315010534746324,0.06252529755376969,0.5189929825410113,0.7028570689913155,-0.1270521385892725,0.01743211150147695,0.02293132425657283,0.4218583952717271,-0.4421440841867516,0.03525135036002952,-0.1859910427347782,856.6300366300367,860.6593406593407,842.9304029304029,849.7802197802198,880.4029304029305,0.223511,0.449707,0.873230,0.942078,3.962708,9.749756,1,1,1,1,1,92.484375
2017-04-05 11:44:58.514,1.143275421063662,-0.1571447805169203,0.5918386022563786,-0.01320788763527625,0.917636245463319,-0.139392708727942,0.07496083509406824,0.3111521483902252,0.8168521005424728,-0.2315010534746324,0.06252529755376969,0.5189929825410113,0.7028570689913155,-0.1270521385892725,0.01743211150147695,0.02293132425657283,0.4218583952717271,-0.4421440841867516,0.03525135036002952,-0.1859910427347782,829.6336996336996,861.4652014652015,848.5714285714286,846.5567765567765,862.6739926739926,0.223511,0.449707,0.873230,0.942078,3.962708,9.749756,1,1,1,1,1,92.484375
2017-04-05 11:44:58.514,1.143275421063662,-0.1571447805169203,0.5918386022563786,-0.01320788763527625,0.917636245463319,-0.139392708727942,0.07496083509406824,0.3111521483902252,0.8168521005424728,-0.2315010534746324,0.06252529755376969,0.5189929825410113,0.7028570689913155,-0.1270521385892725,0.01743211150147695,0.02293132425657283,0.4218583952717271,-0.4421440841867516,0.03525135036002952,-0.1859910427347782,815.934065934066,859.8534798534798,843.3333333333334,850.989010989011,885.6410256410256,0.223511,0.449707,0.873230,0.942078,3.962708,9.749756,1,1,1,1,1,92.484375
2017-04-05 11:44:58.515,1.143275421063662,-0.1571447805169203,0.5918386022563786,-0.01320788763527625,0.917636245463319,-0.139392708727942,0.07496083509406824,0.3111521483902252,0.8168521005424728,-0.2315010534746324,0.06252529755376969,0.5189929825410113,0.7028570689913155,-0.1270521385892725,0.01743211150147695,0.02293132425657283,0.4218583952717271,-0.4421440841867516,0.03525135036002952,-0.1859910427347782,826.8131868131868,859.8534798534798,836.8864468864469,846.1538461538462,881.2087912087912,0.223511,0.449707,0.873230,0.942078,3.962708,9.749756,1,1,1,1,1,92.484375
2017-04-05 11:44:58.515,1.143275421063662,-0.1571447805169203,0.5918386022563786,-0.01320788763527625,0.917636245463319,-0.139392708727942,0.07496083509406824,0.3111521483902252,0.8168521005424728,-0.2315010534746324,0.06252529755376969,0.5189929825410113,0.7028570689913155,-0.1270521385892725,0.01743211150147695,0.02293132425657283,0.4218583952717271,-0.4421440841867516,0.03525135036002952,-0.1859910427347782,862.2710622710623,858.6446886446887,842.1245421245421,844.9450549450549,842.5274725274726,0.223511,0.449707,0.873230,0.942078,3.962708,9.749756,1,1,1,1,1,92.484375
2017-04-05 11:44:58.516,1.143275421063662,-0.1571447805169203,0.5918386022563786,-0.01320788763527625,0.917636245463319,-0.139392708727942,0.07496083509406824,0.3111521483902252,0.8168521005424728,-0.2315010534746324,0.06252529755376969,0.5189929825410113,0.7028570689913155,-0.1270521385892725,0.01743211150147695,0.02293132425657283,0.4218583952717271,-0.4421440841867516,0.03525135036002952,-0.1859910427347782,850.989010989011,859.4505494505495,842.1245421245421,853.8095238095239,824.3956043956044,0.223511,0.449707,0.873230,0.942078,3.962708,9.749756,1,1,1,1,1,92.484375
2017-04-05 11:44:58.517,1.143275421063662,-0.1571447805169203,0.5918386022563786,-0.01320788763527625,0.917636245463319,-0.139392708727942,0.07496083509406824,0.3111521483902252,0.8168521005424728,-0.2315010534746324,0.06252529755376969,0.5189929825410113,0.7028570689913155,-0.1270521385892725,0.01743211150147695,0.02293132425657283,0.4218583952717271,-0.4421440841867516,0.03525135036002952,-0.1859910427347782,818.3516483516484,857.032967032967,840.5128205128206,843.7362637362637,844.9450549450549,0.228210,0.448242,0.873779,0.800018,5.816956,9.966583,1,1,1,1,1,92.484375
2017-04-05 11:44:58.517,1.143275421063662,-0.1571447805169203,0.5918386022563786,-0.01320788763527625,0.917636245463319,-0.139392708727942,0.07496083509406824,0.3111521483902252,0.8168521005424728,-0.2315010534746324,0.06252529755376969,0.5189929825410113,0.7028570689913155,-0.1270521385892725,0.01743211150147695,0.02293132425657283,0.4218583952717271,-0.4421440841867516,0.03525135036002952,-0.1859910427347782,824.7985347985348,854.6153846153846,830.8424908424909,836.8864468864469,857.032967032967,0.228210,0.448242,0.873779,0.800018,5.816956,9.966583,1,1,1,1,1,92.484375
2017-04-05 11:44:58.518,1.143275421063662,-0.1571447805169203,0.5918386022563786,-0.01320788763527625,0.917636245463319,-0.139392708727942,0.07496083509406824,0.3111521483902252,0.8168521005424728,-0.2315010534746324,0.06252529755376969,0.5189929825410113,0.7028570689913155,-0.1270521385892725,0.01743211150147695,0.02293132425657283,0.4218583952717271,-0.4421440841867516,0.03525135036002952,-0.1859910427347782,863.8827838827839,855.0183150183151,833.6630036630037,843.3333333333334,843.3333333333334,0.228210,0.448242,0.873779,0.800018,5.816956,9.966583,1,1,1,1,1,92.484375
2017-04-05 11:44:58.518,1.143275421063662,-0.1571447805169203,0.5918386022563786,-0.01320788763527625,0.917636245463319,-0.139392708727942,0.07496083509406824,0.3111521483902252,0.8168521005424728,-0.2315010534746324,0.06252529755376969,0.5189929825410113,0.7028570689913155,-0.1270521385892725,0.01743211150147695,0.02293132425657283,0.4218583952717271,-0.4421440841867516,0.03525135036002952,-0.1859910427347782,880.4029304029305,854.6153846153846,846.959706959707,846.959706959707,834.4688644688645,0.228210,0.448242,0.873779,0.800018,5.816956,9.966583,1,1,1,1,1,92.484375
2017-04-05 11:44:58.519,1.143275421063662,-0.1571447805169203,0.5918386022563786,-0.01320788763527625,0.917636245463319,-0.139392708727942,0.07496083509406824,0.3111521483902252,0.8168521005424728,-0.2315010534746324,0.06252529755376969,0.5189929825410113,0.7028570689913155,-0.1270521385892725,0.01743211150147695,0.02293132425657283,0.4218583952717271,-0.4421440841867516,0.03525135036002952,-0.1859910427347782,844.5421245421246,857.8388278388279,844.1391941391942,844.9450549450549,832.0512820512821,0.228210,0.448242,0.873779,0.800018,5.816956,9.966583,1,1,1,1,1,92.484375
2017-04-05 11:44:58.521,1.143275421063662,-0.1571447805169203,0.5918386022563786,-0.01320788763527625,0.917636245463319,-0.139392708727942,0.07496083509406824,0.3111521483902252,0.8168521005424728,-0.2085448284792995,0.06679820459875262,0.6009354561379208,0.7028570689913155,-0.1270521385892725,0.01743211150147695,0.02293132425657283,0.4218583952717271,-0.4421440841867516,0.03525135036002952,-0.1859910427347782,844.5421245421246,857.8388278388279,844.1391941391942,844.9450549450549,832.0512820512821,0.228210,0.448242,0.873779,0.800018,5.816956,9.966583,1,1,1,1,1,92.484375
2017-04-05 11:44:58.522,1.143275421063662,-0.1571447805169203,0.5918386022563786,-0.01320788763527625,0.917636245463319,-0.139392708727942,0.07496083509406824,0.3111521483902252,0.8168521005424728,-0.2085448284792995,0.06679820459875262,0.6009354561379208,0.6960492441344905,-0.1362705520991029,-0.01727387109085953,0.01649553603115479,0.4218583952717271,-0.4421440841867516,0.03525135036002952,-0.1859910427347782,844.5421245421246,857.8388278388279,844.1391941391942,844.9450549450549,832.0512820512821,0.228210,0.448242,0.873779,0.800018,5.816956,9.966583,1,1,1,1,1,92.484375
2017-04-05 11:44:58.523,1.188527637391982,-0.1778126662293077,0.4473448871872422,0.001345936840051985,0.917636245463319,-0.139392708727942,0.07496083509406824,0.3111521483902252,0.8168521005424728,-0.2085448284792995,0.06679820459875262,0.6009354561379208,0.6960492441344905,-0.1362705520991029,-0.01727387109085953,0.01649553603115479,0.4218583952717271,-0.4421440841867516,0.03525135036002952,-0.1859910427347782,844.5421245421246,857.8388278388279,844.1391941391942,844.9450549450549,832.0512820512821,0.228210,0.448242,0.873779,0.800018,5.816956,9.966583,1,1,1,1,1,92.484375
2017-04-05 11:44:58.523,1.188527637391982,-0.1778126662293077,0.4473448871872422,0.001345936840051985,0.8905667695812045,-0.1667603261412609,0.0344289392183937,0.3330156072634057,0.8168521005424728,-0.2085448284792995,0.06679820459875262,0.6009354561379208,0.6960492441344905,-0.1362705520991029,-0.01727387109085953,0.01649553603115479,0.4218583952717271,-0.4421440841867516,0.03525135036002952,-0.1859910427347782,844.5421245421246,857.8388278388279,844.1391941391942,844.9450549450549,832.0512820512821,0.228210,0.448242,0.873779,0.800018,5.816956,9.966583,1,1,1,1,1,92.484375
2017-04-05 11:44:58.523,1.188527637391982,-0.1778126662293077,0.4473448871872422,0.001345936840051985,0.8905667695812045,-0.1667603261412609,0.0344289392183937,0.3330156072634057,0.8168521005424728,-0.2085448284792995,0.06679820459875262,0.6009354561379208,0.6960492441344905,-0.1362705520991029,-0.01727387109085953,0.01649553603115479,0.4033571793971878,-0.436169014415996,0.02824249450476074,-0.1908261944617798,844.5421245421246,857.8388278388279,844.1391941391942,844.9450549450549,832.0512820512821,0.228210,0.448242,0.873779,0.800018,5.816956,9.966583,1,1,1,1,1,92.484375
2017-04-05 11:44:58.519,1.188527637391982,-0.1778126662293077,0.4473448871872422,0.001345936840051985,0.8905667695812045,-0.1667603261412609,0.0344289392183937,0.3330156072634057,0.8168521005424728,-0.2085448284792995,0.06679820459875262,0.6009354561379208,0.6960492441344905,-0.1362705520991029,-0.01727387109085953,0.01649553603115479,0.4033571793971878,-0.436169014415996,0.02824249450476074,-0.1908261944617798,819.96336996337,858.6446886446887,837.2893772893773,833.6630036630037,841.3186813186813,0.228210,0.448242,0.873779,0.800018,5.816956,9.966583,1,1,1,1,1,92.484375
2017-04-05 11:44:58.524,1.188527637391982,-0.1778126662293077,0.4473448871872422,0.001345936840051985,0.8905667695812045,-0.1667603261412609,0.0344289392183937,0.3330156072634057,0.8168521005424728,-0.2085448284792995,0.06679820459875262,0.6009354561379208,0.6960492441344905,-0.1362705520991029,-0.01727387109085953,0.01649553603115479,0.4033571793971878,-0.436169014415996,0.02824249450476074,-0.1908261944617798,837.2893772893773,850.989010989011,837.6923076923077,835.6776556776557,829.2307692307693,0.228210,0.448242,0.873779,0.800018,5.816956,9.966583,1,1,1,1,1,92.484375
2017-04-05 11:44:58.525,1.188527637391982,-0.1778126662293077,0.4473448871872422,0.001345936840051985,0.8905667695812045,-0.1667603261412609,0.0344289392183937,0.3330156072634057,0.8168521005424728,-0.2085448284792995,0.06679820459875262,0.6009354561379208,0.6960492441344905,-0.1362705520991029,-0.01727387109085953,0.01649553603115479,0.4033571793971878,-0.436169014415996,0.02824249450476074,-0.1908261944617798,849.7802197802198,852.6007326007326,847.3626373626374,848.5714285714286,820.7692307692308,0.228210,0.448242,0.873779,0.800018,5.816956,9.966583,1,1,1,1,1,92.484375
2017-04-05 11:44:58.525,1.188527637391982,-0.1778126662293077,0.4473448871872422,0.001345936840051985,0.8905667695812045,-0.1667603261412609,0.0344289392183937,0.3330156072634057,0.8168521005424728,-0.2085448284792995,0.06679820459875262,0.6009354561379208,0.6960492441344905,-0.1362705520991029,-0.01727387109085953,0.01649553603115479,0.4033571793971878,-0.436169014415996,0.02824249450476074,-0.1908261944617798,833.6630036630037,860.2564102564103,842.5274725274726,855.4212454212454,824.3956043956044,0.228210,0.448242,0.873779,0.800018,5.816956,9.966583,1,1,1,1,1,92.484375
2017-04-05 11:44:58.526,1.188527637391982,-0.1778126662293077,0.4473448871872422,0.001345936840051985,0.8905667695812045,-0.1667603261412609,0.0344289392183937,0.3330156072634057,0.8168521005424728,-0.2085448284792995,0.06679820459875262,0.6009354561379208,0.6960492441344905,-0.1362705520991029,-0.01727387109085953,0.01649553603115479,0.4033571793971878,-0.436169014415996,0.02824249450476074,-0.1908261944617798,840.5128205128206,861.8681318681319,835.2747252747253,848.1684981684982,819.5604395604396,0.228210,0.448242,0.873779,0.800018,5.816956,9.966583,1,1,1,1,1,92.484375
2017-04-05 11:44:58.526,1.188527637391982,-0.1778126662293077,0.4473448871872422,0.001345936840051985,0.8905667695812045,-0.1667603261412609,0.0344289392183937,0.3330156072634057,0.8168521005424728,-0.2085448284792995,0.06679820459875262,0.6009354561379208,0.6960492441344905,-0.1362705520991029,-0.01727387109085953,0.01649553603115479,0.4033571793971878,-0.436169014415996,0.02824249450476074,-0.1908261944617798,877.5824175824176,857.8388278388279,842.5274725274726,843.7362637362637,821.1721611721612,0.228210,0.448242,0.873779,0.800018,5.816956,9.966583,1,1,1,1,1,92.484375
2017-04-05 11:44:58.526,1.188527637391982,-0.1778126662293077,0.4473448871872422,0.001345936840051985,0.8905667695812045,-0.1667603261412609,0.0344289392183937,0.3330156072634057,0.8168521005424728,-0.2085448284792995,0.06679820459875262,0.6009354561379208,0.6960492441344905,-0.1362705520991029,-0.01727387109085953,0.01649553603115479,0.4033571793971878,-0.436169014415996,0.02824249450476074,-0.1908261944617798,865.0915750915751,855.8241758241759,840.9157509157509,857.8388278388279,809.4871794871796,0.228210,0.448242,0.873779,0.800018,5.816956,9.966583,1,1,1,1,1,92.484375
2017-04-05 11:44:58.527,1.188527637391982,-0.1778126662293077,0.4473448871872422,0.001345936840051985,0.8905667695812045,-0.1667603261412609,0.0344289392183937,0.3330156072634057,0.8168521005424728,-0.2085448284792995,0.06679820459875262,0.6009354561379208,0.6960492441344905,-0.1362705520991029,-0.01727387109085953,0.01649553603115479,0.4033571793971878,-0.436169014415996,0.02824249450476074,-0.1908261944617798,836.8864468864469,857.032967032967,841.7216117216118,863.0769230769231,812.7106227106227,0.221375,0.439636,0.871033,0.777588,5.256195,10.751648,1,1,1,1,1,92.484375
2017-04-05 11:44:58.527,1.188527637391982,-0.1778126662293077,0.4473448871872422,0.001345936840051985,0.8905667695812045,-0.1667603261412609,0.0344289392183937,0.3330156072634057,0.8168521005424728,-0.2085448284792995,0.06679820459875262,0.6009354561379208,0.6960492441344905,-0.1362705520991029,-0.01727387109085953,0.01649553603115479,0.4033571793971878,-0.436169014415996,0.02824249450476074,-0.1908261944617798,839.3040293040293,855.4212454212454,846.5567765567765,858.6446886446887,836.4835164835165,0.221375,0.439636,0.871033,0.777588,5.256195,10.751648,1,1,1,1,1,92.484375
2017-04-05 11:44:58.527,1.188527637391982,-0.1778126662293077,0.4473448871872422,0.001345936840051985,0.8905667695812045,-0.1667603261412609,0.0344289392183937,0.3330156072634057,0.8168521005424728,-0.2085448284792995,0.06679820459875262,0.6009354561379208,0.6960492441344905,-0.1362705520991029,-0.01727387109085953,0.01649553603115479,0.4033571793971878,-0.436169014415996,0.02824249450476074,-0.1908261944617798,862.2710622710623,856.2271062271062,838.4981684981685,859.4505494505495,847.7655677655678,0.221375,0.439636,0.871033,0.777588,5.256195,10.751648,1,1,1,1,1,92.484375
2017-04-05 11:44:58.528,1.188527637391982,-0.1778126662293077,0.4473448871872422,0.001345936840051985,0.8905667695812045,-0.1667603261412609,0.0344289392183937,0.3330156072634057,0.8168521005424728,-0.2085448284792995,0.06679820459875262,0.6009354561379208,0.6960492441344905,-0.1362705520991029,-0.01727387109085953,0.01649553603115479,0.4033571793971878,-0.436169014415996,0.02824249450476074,-0.1908261944617798,877.5824175824176,858.2417582417582,837.6923076923077,863.4798534798535,814.7252747252747,0.221375,0.439636,0.871033,0.777588,5.256195,10.751648,1,1,1,1,1,92.484375
2017-04-05 11:44:58.528,1.188527637391982,-0.1778126662293077,0.4473448871872422,0.001345936840051985,0.8905667695812045,-0.1667603261412609,0.0344289392183937,0.3330156072634057,0.8168521005424728,-0.2085448284792995,0.06679820459875262,0.6009354561379208,0.6960492441344905,-0.1362705520991029,-0.01727387109085953,0.01649553603115479,0.4033571793971878,-0.436169014415996,0.02824249450476074,-0.1908261944617798,844.5421245421246,855.4212454212454,845.7509157509157,871.5384615384615,794.5787545787546,0.221375,0.439636,0.871033,0.777588,5.256195,10.751648,1,1,1,1,1,92.484375
2017-04-05 11:44:58.529,1.188527637391982,-0.1778126662293077,0.4473448871872422,0.001345936840051985,0.8905667695812045,-0.1667603261412609,0.0344289392183937,0.3330156072634057,0.8168521005424728,-0.2085448284792995,0.06679820459875262,0.6009354561379208,0.6960492441344905,-0.1362705520991029,-0.01727387109085953,0.01649553603115479,0.4033571793971878,-0.436169014415996,0.02824249450476074,-0.1908261944617798,814.7252747252747,857.8388278388279,843.3333333333334,866.3003663003664,809.8901098901099,0.221375,0.439636,0.871033,0.777588,5.256195,10.751648,1,1,1,1,1,92.484375
2017-04-05 11:44:58.529,1.188527637391982,-0.1778126662293077,0.4473448871872422,0.001345936840051985,0.8905667695812045,-0.1667603261412609,0.0344289392183937,0.3330156072634057,0.8168521005424728,-0.2085448284792995,0.06679820459875262,0.6009354561379208,0.6960492441344905,-0.1362705520991029,-0.01727387109085953,0.01649553603115479,0.4033571793971878,-0.436169014415996,0.02824249450476074,-0.1908261944617798,843.3333333333334,856.6300366300367,847.7655677655678,861.8681318681319,830.0366300366301,0.221375,0.439636,0.871033,0.777588,5.256195,10.751648,1,1,1,1,1,92.484375
2017-04-05 11:44:58.529,1.188527637391982,-0.1778126662293077,0.4473448871872422,0.001345936840051985,0.8905667695812045,-0.1667603261412609,0.0344289392183937,0.3330156072634057,0.8168521005424728,-0.2085448284792995,0.06679820459875262,0.6009354561379208,0.6960492441344905,-0.1362705520991029,-0.01727387109085953,0.01649553603115479,0.4033571793971878,-0.436169014415996,0.02824249450476074,-0.1908261944617798,882.4175824175825,851.7948717948718,851.7948717948718,866.3003663003664,864.6886446886447,0.221375,0.439636,0.871033,0.777588,5.256195,10.751648,1,1,1,1,1,92.484375
2017-04-05 11:44:58.530,1.188527637391982,-0.1778126662293077,0.4473448871872422,0.001345936840051985,0.8905667695812045,-0.1667603261412609,0.0344289392183937,0.3330156072634057,0.8168521005424728,-0.2085448284792995,0.06679820459875262,0.6009354561379208,0.6960492441344905,-0.1362705520991029,-0.01727387109085953,0.01649553603115479,0.4033571793971878,-0.436169014415996,0.02824249450476074,-0.1908261944617798,866.7032967032967,855.4212454212454,842.9304029304029,868.7179487179487,875.9706959706959,0.221375,0.439636,0.871033,0.777588,5.256195,10.751648,1,1,1,1,1,92.484375
2017-04-05 11:44:58.530,1.188527637391982,-0.1778126662293077,0.4473448871872422,0.001345936840051985,0.8905667695812045,-0.1667603261412609,0.0344289392183937,0.3330156072634057,0.8168521005424728,-0.2085448284792995,0.06679820459875262,0.6009354561379208,0.6960492441344905,-0.1362705520991029,-0.01727387109085953,0.01649553603115479,0.4033571793971878,-0.436169014415996,0.02824249450476074,-0.1908261944617798,819.96336996337,857.4358974358975,838.0952380952381,866.3003663003664,811.9047619047619,0.221375,0.439636,0.871033,0.777588,5.256195,10.751648,1,1,1,1,1,92.484375
2017-04-05 11:44:58.530,1.188527637391982,-0.1778126662293077,0.4473448871872422,0.001345936840051985,0.8905667695812045,-0.1667603261412609,0.0344289392183937,0.3330156072634057,0.8168521005424728,-0.2085448284792995,0.06679820459875262,0.6009354561379208,0.6960492441344905,-0.1362705520991029,-0.01727387109085953,0.01649553603115479,0.4033571793971878,-0.436169014415996,0.02824249450476074,-0.1908261944617798,834.4688644688645,854.6153846153846,845.7509157509157,857.4358974358975,794.981684981685,0.221375,0.439636,0.871033,0.777588,5.256195,10.751648,1,1,1,1,1,92.484375
2017-04-05 11:44:58.531,1.188527637391982,-0.1778126662293077,0.4473448871872422,0.001345936840051985,0.8905667695812045,-0.1667603261412609,0.0344289392183937,0.3330156072634057,0.8168521005424728,-0.2085448284792995,0.06679820459875262,0.6009354561379208,0.6960492441344905,-0.1362705520991029,-0.01727387109085953,0.01649553603115479,0.4033571793971878,-0.436169014415996,0.02824249450476074,-0.1908261944617798,871.1355311355312,853.4065934065934,846.1538461538462,863.0769230769231,828.021978021978,0.221375,0.439636,0.871033,0.777588,5.256195,10.751648,1,1,1,1,1,92.484375
2017-04-05 11:44:58.531,1.188527637391982,-0.1778126662293077,0.4473448871872422,0.001345936840051985,0.8905667695812045,-0.1667603261412609,0.0344289392183937,0.3330156072634057,0.8168521005424728,-0.2085448284792995,0.06679820459875262,0.6009354561379208,0.6960492441344905,-0.1362705520991029,-0.01727387109085953,0.01649553603115479,0.4033571793971878,-0.436169014415996,0.02824249450476074,-0.1908261944617798,877.5824175824176,858.2417582417582,840.5128205128206,866.7032967032967,842.1245421245421,0.223938,0.428650,0.861267,1.330872,4.501038,10.878754,1,1,1,1,1,92.484375
2017-04-05 11:44:58.532,1.188527637391982,-0.1778126662293077,0.4473448871872422,0.001345936840051985,0.8905667695812045,-0.1667603261412609,0.0344289392183937,0.3330156072634057,0.8168521005424728,-0.2085448284792995,0.06679820459875262,0.6009354561379208,0.6960492441344905,-0.1362705520991029,-0.01727387109085953,0.01649553603115479,0.4033571793971878,-0.436169014415996,0.02824249450476074,-0.1908261944617798,851.3919413919414,861.8681318681319,840.5128205128206,858.2417582417582,850.1831501831502,0.223938,0.428650,0.861267,1.330872,4.501038,10.878754,1,1,1,1,1,92.484375
2017-04-05 11:44:58.532,1.188527637391982,-0.1778126662293077,0.4473448871872422,0.001345936840051985,0.8905667695812045,-0.1667603261412609,0.0344289392183937,0.3330156072634057,0.8168521005424728,-0.2085448284792995,0.06679820459875262,0.6009354561379208,0.6960492441344905,-0.1362705520991029,-0.01727387109085953,0.01649553603115479,0.4033571793971878,-0.436169014415996,0.02824249450476074,-0.1908261944617798,830.8424908424909,861.0622710622711,843.3333333333334,853.4065934065934,842.1245421245421,0.223938,0.428650,0.861267,1.330872,4.501038,10.878754,1,1,1,1,1,92.484375
2017-04-05 11:44:58.532,1.188527637391982,-0.1778126662293077,0.4473448871872422,0.001345936840051985,0.8905667695812045,-0.1667603261412609,0.0344289392183937,0.3330156072634057,0.8168521005424728,-0.2085448284792995,0.06679820459875262,0.6009354561379208,0.6960492441344905,-0.1362705520991029,-0.01727387109085953,0.01649553603115479,0.4033571793971878,-0.436169014415996,0.02824249450476074,-0.1908261944617798,857.032967032967,861.8681318681319,845.7509157509157,859.4505494505495,838.0952380952381,0.223938,0.428650,0.861267,1.330872,4.501038,10.878754,1,1,1,1,1,92.484375
2017-04-05 11:44:58.533,1.188527637391982,-0.1778126662293077,0.4473448871872422,0.001345936840051985,0.8905667695812045,-0.1667603261412609,0.0344289392183937,0.3330156072634057,0.8168521005424728,-0.2085448284792995,0.06679820459875262,0.6009354561379208,0.6960492441344905,-0.1362705520991029,-0.01727387109085953,0.01649553603115479,0.4033571793971878,-0.436169014415996,0.02824249450476074,-0.1908261944617798,865.4945054945056,860.6593406593407,837.6923076923077,866.3003663003664,821.1721611721612,0.223938,0.428650,0.861267,1.330872,4.501038,10.878754,1,1,1,1,1,92.484375
2017-04-05 11:44:58.533,1.188527637391982,-0.1778126662293077,0.4473448871872422,0.001345936840051985,0.8905667695812045,-0.1667603261412609,0.0344289392183937,0.3330156072634057,0.8168521005424728,-0.2085448284792995,0.06679820459875262,0.6009354561379208,0.6960492441344905,-0.1362705520991029,-0.01727387109085953,0.01649553603115479,0.4033571793971878,-0.436169014415996,0.02824249450476074,-0.1908261944617798,838.4981684981685,856.2271062271062,837.6923076923077,861.8681318681319,835.2747252747253,0.223938,0.428650,0.861267,1.330872,4.501038,10.878754,1,1,1,1,1,92.484375
2017-04-05 11:44:58.533,1.188527637391982,-0.1778126662293077,0.4473448871872422,0.001345936840051985,0.8905667695812045,-0.1667603261412609,0.0344289392183937,0.3330156072634057,0.8168521005424728,-0.2085448284792995,0.06679820459875262,0.6009354561379208,0.6960492441344905,-0.1362705520991029,-0.01727387109085953,0.01649553603115479,0.4033571793971878,-0.436169014415996,0.02824249450476074,-0.1908261944617798,821.5750915750916,859.8534798534798,835.6776556776557,855.0183150183151,831.2454212454213,0.223938,0.428650,0.861267,1.330872,4.501038,10.878754,1,1,1,1,1,92.484375
2017-04-05 11:44:58.535,1.188527637391982,-0.1778126662293077,0.4473448871872422,0.001345936840051985,0.8905667695812045,-0.1667603261412609,0.0344289392183937,0.3330156072634057,0.8168521005424728,-0.2044905441731518,0.1454560396224299,0.6365067103979178,0.6960492441344905,-0.1362705520991029,-0.01727387109085953,0.01649553603115479,0.4033571793971878,-0.436169014415996,0.02824249450476074,-0.1908261944617798,821.5750915750916,859.8534798534798,835.6776556776557,855.0183150183151,831.2454212454213,0.223938,0.428650,0.861267,1.330872,4.501038,10.878754,1,1,1,1,1,92.484375
2017-04-05 11:44:58.536,1.188527637391982,-0.1778126662293077,0.4473448871872422,0.001345936840051985,0.8905667695812045,-0.1667603261412609,0.0344289392183937,0.3330156072634057,0.8168521005424728,-0.2044905441731518,0.1454560396224299,0.6365067103979178,0.6894972142313206,-0.1514955022834559,-0.04420809882729957,0.0115427958511611,0.4033571793971878,-0.436169014415996,0.02824249450476074,-0.1908261944617798,821.5750915750916,859.8534798534798,835.6776556776557,855.0183150183151,831.2454212454213,0.223938,0.428650,0.861267,1.330872,4.501038,10.878754,1,1,1,1,1,92.484375
2017-04-05 11:44:58.536,1.234934380072069,-0.1996794484140123,0.292188202057838,0.05887910953443445,0.8905667695812045,-0.1667603261412609,0.0344289392183937,0.3330156072634057,0.8168521005424728,-0.2044905441731518,0.1454560396224299,0.6365067103979178,0.6894972142313206,-0.1514955022834559,-0.04420809882729957,0.0115427958511611,0.4033571793971878,-0.436169014415996,0.02824249450476074,-0.1908261944617798,821.5750915750916,859.8534798534798,835.6776556776557,855.0183150183151,831.2454212454213,0.223938,0.428650,0.861267,1.330872,4.501038,10.878754,1,1,1,1,1,92.484375
2017-04-05 11:44:58.536,1.234934380072069,-0.1996794484140123,0.292188202057838,0.05887910953443445,0.8718653421222037,-0.2134375558288064,-0.02039861575050632,0.346347439523243,0.8168521005424728,-0.2044905441731518,0.1454560396224299,0.6365067103979178,0.6894972142313206,-0.1514955022834559,-0.04420809882729957,0.0115427958511611,0.4033571793971878,-0.436169014415996,0.02824249450476074,-0.1908261944617798,821.5750915750916,859.8534798534798,835.6776556776557,855.0183150183151,831.2454212454213,0.223938,0.428650,0.861267,1.330872,4.501038,10.878754,1,1,1,1,1,92.484375
2017-04-05 11:44:58.537,1.234934380072069,-0.1996794484140123,0.292188202057838,0.05887910953443445,0.8718653421222037,-0.2134375558288064,-0.02039861575050632,0.346347439523243,0.8168521005424728,-0.2044905441731518,0.1454560396224299,0.6365067103979178,0.6894972142313206,-0.1514955022834559,-0.04420809882729957,0.0115427958511611,0.3971963111642242,-0.4339564143349737,0.02324503476391083,-0.200584860412525,821.5750915750916,859.8534798534798,835.6776556776557,855.0183150183151,831.2454212454213,0.223938,0.428650,0.861267,1.330872,4.501038,10.878754,1,1,1,1,1,92.484375
2017-04-05 11:44:58.534,1.234934380072069,-0.1996794484140123,0.292188202057838,0.05887910953443445,0.8718653421222037,-0.2134375558288064,-0.02039861575050632,0.346347439523243,0.8168521005424728,-0.2044905441731518,0.1454560396224299,0.6365067103979178,0.6894972142313206,-0.1514955022834559,-0.04420809882729957,0.0115427958511611,0.3971963111642242,-0.4339564143349737,0.02324503476391083,-0.200584860412525,849.3772893772895,859.4505494505495,830.0366300366301,861.4652014652015,829.6336996336996,0.223938,0.428650,0.861267,1.330872,4.501038,10.878754,1,1,1,1,1,92.484375
2017-04-05 11:44:58.537,1.234934380072069,-0.1996794484140123,0.292188202057838,0.05887910953443445,0.8718653421222037,-0.2134375558288064,-0.02039861575050632,0.346347439523243,0.8168521005424728,-0.2044905441731518,0.1454560396224299,0.6365067103979178,0.6894972142313206,-0.1514955022834559,-0.04420809882729957,0.0115427958511611,0.3971963111642242,-0.4339564143349737,0.02324503476391083,-0.200584860412525,876.3736263736264,859.4505494505495,838.0952380952381,864.2857142857143,843.3333333333334,0.223938,0.428650,0.861267,1.330872,4.501038,10.878754,1,1,1,1,1,92.484375
2017-04-05 11:44:58.538,1.234934380072069,-0.1996794484140123,0.292188202057838,0.05887910953443445,0.8718653421222037,-0.2134375558288064,-0.02039861575050632,0.346347439523243,0.8168521005424728,-0.2044905441731518,0.1454560396224299,0.6365067103979178,0.6894972142313206,-0.1514955022834559,-0.04420809882729957,0.0115427958511611,0.3971963111642242,-0.4339564143349737,0.02324503476391083,-0.200584860412525,853.0036630036631,862.2710622710623,846.1538461538462,861.8681318681319,838.0952380952381,0.223938,0.428650,0.861267,1.330872,4.501038,10.878754,1,1,1,1,1,92.484375
2017-04-05 11:44:58.538,1.234934380072069,-0.1996794484140123,0.292188202057838,0.05887910953443445,0.8718653421222037,-0.2134375558288064,-0.02039861575050632,0.346347439523243,0.8168521005424728,-0.2044905441731518,0.1454560396224299,0.6365067103979178,0.6894972142313206,-0.1514955022834559,-0.04420809882729957,0.0115427958511611,0.3971963111642242,-0.4339564143349737,0.02324503476391083,-0.200584860412525,823.1868131868132,857.4358974358975,847.3626373626374,861.4652014652015,836.8864468864469,0.223938,0.428650,0.861267,1.330872,4.501038,10.878754,1,1,1,1,1,92.484375
2017-04-05 11:44:58.538,1.234934380072069,-0.1996794484140123,0.292188202057838,0.05887910953443445,0.8718653421222037,-0.2134375558288064,-0.02039861575050632,0.346347439523243,0.8168521005424728,-0.2044905441731518,0.1454560396224299,0.6365067103979178,0.6894972142313206,-0.1514955022834559,-0.04420809882729957,0.0115427958511611,0.3971963111642242,-0.4339564143349737,0.02324503476391083,-0.200584860412525,813.919413919414,850.989010989011,842.1245421245421,857.032967032967,807.4725274725275,0.223938,0.428650,0.861267,1.330872,4.501038,10.878754,1,1,1,1,1,92.484375
2017-04-05 11:44:58.539,1.234934380072069,-0.1996794484140123,0.292188202057838,0.05887910953443445,0.8718653421222037,-0.2134375558288064,-0.02039861575050632,0.346347439523243,0.8168521005424728,-0.2044905441731518,0.1454560396224299,0.6365067103979178,0.6894972142313206,-0.1514955022834559,-0.04420809882729957,0.0115427958511611,0.3971963111642242,-0.4339564143349737,0.02324503476391083,-0.200584860412525,859.4505494505495,853.8095238095239,837.6923076923077,857.032967032967,803.8461538461539,0.227173,0.435059,0.848694,3.020630,3.887939,12.538605,1,1,1,1,1,92.484375
2017-04-05 11:44:58.539,1.234934380072069,-0.1996794484140123,0.292188202057838,0.05887910953443445,0.8718653421222037,-0.2134375558288064,-0.02039861575050632,0.346347439523243,0.8168521005424728,-0.2044905441731518,0.1454560396224299,0.6365067103979178,0.6894972142313206,-0.1514955022834559,-0.04420809882729957,0.0115427958511611,0.3971963111642242,-0.4339564143349737,0.02324503476391083,-0.200584860412525,873.5531135531136,853.4065934065934,840.1098901098901,857.4358974358975,847.3626373626374,0.227173,0.435059,0.848694,3.020630,3.887939,12.538605,1,1,1,1,1,92.484375
2017-04-05 11:44:58.539,1.234934380072069,-0.1996794484140123,0.292188202057838,0.05887910953443445,0.8718653421222037,-0.2134375558288064,-0.02039861575050632,0.346347439523243,0.8168521005424728,-0.2044905441731518,0.1454560396224299,0.6365067103979178,0.6894972142313206,-0.1514955022834559,-0.04420809882729957,0.0115427958511611,0.3971963111642242,-0.4339564143349737,0.02324503476391083,-0.200584860412525,836.0805860805862,855.8241758241759,833.2600732600733,857.032967032967,854.6153846153846,0.227173,0.435059,0.848694,3.020630,3.887939,12.538605,1,1,1,1,1,92.484375
2017-04-05 11:44:58.540,1.234934380072069,-0.1996794484140123,0.292188202057838,0.05887910953443445,0.8718653421222037,-0.2134375558288064,-0.02039861575050632,0.346347439523243,0.8168521005424728,-0.2044905441731518,0.1454560396224299,0.6365067103979178,0.6894972142313206,-0.1514955022834559,-0.04420809882729957,0.0115427958511611,0.3971963111642242,-0.4339564143349737,0.02324503476391083,-0.200584860412525,826.4102564102565,864.6886446886447,833.2600732600733,859.047619047619,832.8571428571429,0.227173,0.435059,0.848694,3.020630,3.887939,12.538605,1,1,1,1,1,92.484375
2017-04-05 11:44:58.540,1.234934380072069,-0.1996794484140123,0.292188202057838,0.05887910953443445,0.8718653421222037,-0.2134375558288064,-0.02039861575050632,0.346347439523243,0.8168521005424728,-0.2044905441731518,0.1454560396224299,0.6365067103979178,0.6894972142313206,-0.1514955022834559,-0.04420809882729957,0.0115427958511611,0.3971963111642242,-0.4339564143349737,0.02324503476391083,-0.200584860412525,848.974358974359,861.0622710622711,840.9157509157509,855.4212454212454,844.5421245421246,0.227173,0.435059,0.848694,3.020630,3.887939,12.538605,1,1,1,1,1,92.484375
2017-04-05 11:44:58.540,1.234934380072069,-0.1996794484140123,0.292188202057838,0.05887910953443445,0.8718653421222037,-0.2134375558288064,-0.02039861575050632,0.346347439523243,0.8168521005424728,-0.2044905441731518,0.1454560396224299,0.6365067103979178,0.6894972142313206,-0.1514955022834559,-0.04420809882729957,0.0115427958511611,0.3971963111642242,-0.4339564143349737,0.02324503476391083,-0.200584860412525,861.4652014652015,857.4358974358975,840.9157509157509,866.7032967032967,879.5970695970697,0.227173,0.435059,0.848694,3.020630,3.887939,12.538605,1,1,1,1,1,92.484375
2017-04-05 11:44:58.540,1.234934380072069,-0.1996794484140123,0.292188202057838,0.05887910953443445,0.8718653421222037,-0.2134375558288064,-0.02039861575050632,0.346347439523243,0.8168521005424728,-0.2044905441731518,0.1454560396224299,0.6365067103979178,0.6894972142313206,-0.1514955022834559,-0.04420809882729957,0.0115427958511611,0.3971963111642242,-0.4339564143349737,0.02324503476391083,-0.200584860412525,834.4688644688645,859.047619047619,830.0366300366301,871.941391941392,877.5824175824176,0.227173,0.435059,0.848694,3.020630,3.887939,12.538605,1,1,1,1,1,92.484375
2017-04-05 11:44:58.541,1.234934380072069,-0.1996794484140123,0.292188202057838,0.05887910953443445,0.8718653421222037,-0.2134375558288064,-0.02039861575050632,0.346347439523243,0.8168521005424728,-0.2044905441731518,0.1454560396224299,0.6365067103979178,0.6894972142313206,-0.1514955022834559,-0.04420809882729957,0.0115427958511611,0.3971963111642242,-0.4339564143349737,0.02324503476391083,-0.200584860412525,827.2161172161173,857.8388278388279,828.021978021978,861.0622710622711,869.5238095238095,0.227173,0.435059,0.848694,3.020630,3.887939,12.538605,1,1,1,1,1,92.484375
2017-04-05 11:44:58.541,1.234934380072069,-0.1996794484140123,0.292188202057838,0.05887910953443445,0.8718653421222037,-0.2134375558288064,-0.02039861575050632,0.346347439523243,0.8168521005424728,-0.2044905441731518,0.1454560396224299,0.6365067103979178,0.6894972142313206,-0.1514955022834559,-0.04420809882729957,0.0115427958511611,0.3971963111642242,-0.4339564143349737,0.02324503476391083,-0.200584860412525,855.0183150183151,857.8388278388279,834.0659340659341,864.6886446886447,847.7655677655678,0.227173,0.435059,0.848694,3.020630,3.887939,12.538605,1,1,1,1,1,92.484375
2017-04-05 11:44:58.541,1.234934380072069,-0.1996794484140123,0.292188202057838,0.05887910953443445,0.8718653421222037,-0.2134375558288064,-0.02039861575050632,0.346347439523243,0.8168521005424728,-0.2044905441731518,0.1454560396224299,0.6365067103979178,0.6894972142313206,-0.1514955022834559,-0.04420809882729957,0.0115427958511611,0.3971963111642242,-0.4339564143349737,0.02324503476391083,-0.200584860412525,867.1062271062272,858.2417582417582,838.4981684981685,864.6886446886447,799.4139194139194,0.227173,0.435059,0.848694,3.020630,3.887939,12.538605,1,1,1,1,1,92.484375
2017-04-05 11:44:58.542,1.234934380072069,-0.1996794484140123,0.292188202057838,0.05887910953443445,0.8718653421222037,-0.2134375558288064,-0.02039861575050632,0.346347439523243,0.8168521005424728,-0.2044905441731518,0.1454560396224299,0.6365067103979178,0.6894972142313206,-0.1514955022834559,-0.04420809882729957,0.0115427958511611,0.3971963111642242,-0.4339564143349737,0.02324503476391083,-0.200584860412525,849.3772893772895,857.4358974358975,838.901098901099,863.8827838827839,812.7106227106227,0.227173,0.435059,0.848694,3.020630,3.887939,12.538605,1,1,1,1,1,92.484375
2017-04-05 11:44:58.542,1.234934380072069,-0.1996794484140123,0.292188202057838,0.05887910953443445,0.8718653421222037,-0.2134375558288064,-0.02039861575050632,0.346347439523243,0.8168521005424728,-0.2044905441731518,0.1454560396224299,0.6365067103979178,0.6894972142313206,-0.1514955022834559,-0.04420809882729957,0.0115427958511611,0.3971963111642242,-0.4339564143349737,0.02324503476391083,-0.200584860412525,840.9157509157509,859.8534798534798,838.901098901099,865.0915750915751,851.7948717948718,0.227173,0.435059,0.848694,3.020630,3.887939,12.538605,1,1,1,1,1,92.484375
2017-04-05 11:44:58.542,1.234934380072069,-0.1996794484140123,0.292188202057838,0.05887910953443445,0.8718653421222037,-0.2134375558288064,-0.02039861575050632,0.346347439523243,0.8168521005424728,-0.2044905441731518,0.1454560396224299,0.6365067103979178,0.6894972142313206,-0.1514955022834559,-0.04420809882729957,0.0115427958511611,0.3971963111642242,-0.4339564143349737,0.02324503476391083,-0.200584860412525,859.047619047619,859.4505494505495,840.1098901098901,853.8095238095239,826.8131868131868,0.227173,0.435059,0.848694,3.020630,3.887939,12.538605,1,1,1,1,1,92.484375
2017-04-05 11:44:58.543,1.234934380072069,-0.1996794484140123,0.292188202057838,0.05887910953443445,0.8718653421222037,-0.2134375558288064,-0.02039861575050632,0.346347439523243,0.8168521005424728,-0.2044905441731518,0.1454560396224299,0.6365067103979178,0.6894972142313206,-0.1514955022834559,-0.04420809882729957,0.0115427958511611,0.3971963111642242,-0.4339564143349737,0.02324503476391083,-0.200584860412525,870.3296703296703,867.1062271062272,832.8571428571429,857.032967032967,825.2014652014652,0.227173,0.435059,0.848694,3.020630,3.887939,12.538605,1,1,1,1,1,92.484375
2017-04-05 11:44:58.543,1.234934380072069,-0.1996794484140123,0.292188202057838,0.05887910953443445,0.8718653421222037,-0.2134375558288064,-0.02039861575050632,0.346347439523243,0.8168521005424728,-0.2044905441731518,0.1454560396224299,0.6365067103979178,0.6894972142313206,-0.1514955022834559,-0.04420809882729957,0.0115427958511611,0.3971963111642242,-0.4339564143349737,0.02324503476391083,-0.200584860412525,850.1831501831502,865.4945054945056,829.2307692307693,855.4212454212454,877.985347985348,0.227173,0.435059,0.848694,3.020630,3.887939,12.538605,1,1,1,1,1,92.484375
2017-04-05 11:44:58.543,1.234934380072069,-0.1996794484140123,0.292188202057838,0.05887910953443445,0.8718653421222037,-0.2134375558288064,-0.02039861575050632,0.346347439523243,0.8168521005424728,-0.2044905441731518,0.1454560396224299,0.6365067103979178,0.6894972142313206,-0.1514955022834559,-0.04420809882729957,0.0115427958511611,0.3971963111642242,-0.4339564143349737,0.02324503476391083,-0.200584860412525,832.4542124542124,855.4212454212454,837.6923076923077,851.3919413919414,896.9230769230769,0.227173,0.435059,0.848694,3.020630,3.887939,12.538605,1,1,1,1,1,92.484375
2017-04-05 11:44:58.543,1.234934380072069,-0.1996794484140123,0.292188202057838,0.05887910953443445,0.8718653421222037,-0.2134375558288064,-0.02039861575050632,0.346347439523243,0.8168521005424728,-0.2044905441731518,0.1454560396224299,0.6365067103979178,0.6894972142313206,-0.1514955022834559,-0.04420809882729957,0.0115427958511611,0.3971963111642242,-0.4339564143349737,0.02324503476391083,-0.200584860412525,848.974358974359,860.2564102564103,840.5128205128206,854.6153846153846,895.3113553113553,0.227173,0.435059,0.848694,3.020630,3.887939,12.538605,1,1,1,1,1,92.484375
2017-04-05 11:44:58.544,1.234934380072069,-0.1996794484140123,0.292188202057838,0.05887910953443445,0.8718653421222037,-0.2134375558288064,-0.02039861575050632,0.346347439523243,0.8168521005424728,-0.2044905441731518,0.1454560396224299,0.6365067103979178,0.6894972142313206,-0.1514955022834559,-0.04420809882729957,0.0115427958511611,0.3971963111642242,-0.4339564143349737,0.02324503476391083,-0.200584860412525,880,862.6739926739926,830.4395604395604,852.1978021978023,908.6080586080586,0.227173,0.435059,0.848694,3.020630,3.887939,12.538605,1,1,1,1,1,92.484375
2017-04-05 11:44:58.544,1.234934380072069,-0.1996794484140123,0.292188202057838,0.05887910953443445,0.8718653421222037,-0.2134375558288064,-0.02039861575050632,0.346347439523243,0.8168521005424728,-0.2044905441731518,0.1454560396224299,0.6365067103979178,0.6894972142313206,-0.1514955022834559,-0.04420809882729957,0.0115427958511611,0.3971963111642242,-0.4339564143349737,0.02324503476391083,-0.200584860412525,877.985347985348,864.2857142857143,828.8278388278388,855.0183150183151,886.8498168498169,0.227173,0.435059,0.848694,3.020630,3.887939,12.538605,1,1,1,1,1,92.484375
2017-04-05 11:44:58.544,1.234934380072069,-0.1996794484140123,0.292188202057838,0.05887910953443445,0.8718653421222037,-0.2134375558288064,-0.02039861575050632,0.346347439523243,0.8168521005424728,-0.2044905441731518,0.1454560396224299,0.6365067103979178,0.6894972142313206,-0.1514955022834559,-0.04420809882729957,0.0115427958511611,0.3971963111642242,-0.4339564143349737,0.02324503476391083,-0.200584860412525,844.1391941391942,862.2710622710623,834.4688644688645,846.959706959707,836.8864468864469,0.227173,0.435059,0.848694,3.020630,3.887939,12.538605,1,1,1,1,1,92.484375
2017-04-05 11:44:58.545,1.234934380072069,-0.1996794484140123,0.292188202057838,0.05887910953443445,0.8718653421222037,-0.2134375558288064,-0.02039861575050632,0.346347439523243,0.8168521005424728,-0.2044905441731518,0.1454560396224299,0.6365067103979178,0.6894972142313206,-0.1514955022834559,-0.04420809882729957,0.0115427958511611,0.3971963111642242,-0.4339564143349737,0.02324503476391083,-0.200584860412525,862.6739926739926,859.4505494505495,831.2454212454213,840.9157509157509,835.2747252747253,0.227173,0.435059,0.848694,3.020630,3.887939,12.538605,1,1,1,1,1,92.484375
2017-04-05 11:44:58.547,1.234934380072069,-0.1996794484140123,0.292188202057838,0.05887910953443445,0.8718653421222037,-0.2134375558288064,-0.02039861575050632,0.346347439523243,0.8168521005424728,-0.19952579597396,0.2253746520668217,0.6398648892642752,0.6894972142313206,-0.1514955022834559,-0.04420809882729957,0.0115427958511611,0.3971963111642242,-0.4339564143349737,0.02324503476391083,-0.200584860412525,862.6739926739926,859.4505494505495,831.2454212454213,840.9157509157509,835.2747252747253,0.227173,0.435059,0.848694,3.020630,3.887939,12.538605,1,1,1,1,1,92.484375
2017-04-05 11:44:58.547,1.234934380072069,-0.1996794484140123,0.292188202057838,0.05887910953443445,0.8718653421222037,-0.2134375558288064,-0.02039861575050632,0.346347439523243,0.8168521005424728,-0.19952579597396,0.2253746520668217,0.6398648892642752,0.6844448995808317,-0.1715960201916368,-0.05886434891571053,0.01073827487428464,0.3971963111642242,-0.4339564143349737,0.02324503476391083,-0.200584860412525,862.6739926739926,859.4505494505495,831.2454212454213,840.9157509157509,835.2747252747253,0.227173,0.435059,0.848694,3.020630,3.887939,12.538605,1,1,1,1,1,92.484375
2017-04-05 11:44:58.547,1.282625311760138,-0.2154252203095272,0.171236436714612,0.1785281950095714,0.8718653421222037,-0.2134375558288064,-0.02039861575050632,0.346347439523243,0.8168521005424728,-0.19952579597396,0.2253746520668217,0.6398648892642752,0.6844448995808317,-0.1715960201916368,-0.05886434891571053,0.01073827487428464,0.3971963111642242,-0.4339564143349737,0.02324503476391083,-0.200584860412525,862.6739926739926,859.4505494505495,831.2454212454213,840.9157509157509,835.2747252747253,0.227173,0.435059,0.848694,3.020630,3.887939,12.538605,1,1,1,1,1,92.484375
2017-04-05 11:44:58.548,1.282625311760138,-0.2154252203095272,0.171236436714612,0.1785281950095714,0.8681203348729742,-0.2648099389169968,-0.06943662802811719,0.3515951094391712,0.8168521005424728,-0.19952579597396,0.2253746520668217,0.6398648892642752,0.6844448995808317,-0.1715960201916368,-0.05886434891571053,0.01073827487428464,0.3971963111642242,-0.4339564143349737,0.02324503476391083,-0.200584860412525,862.6739926739926,859.4505494505495,831.2454212454213,840.9157509157509,835.2747252747253,0.227173,0.435059,0.848694,3.020630,3.887939,12.538605,1,1,1,1,1,92.484375
2017-04-05 11:44:58.548,1.282625311760138,-0.2154252203095272,0.171236436714612,0.1785281950095714,0.8681203348729742,-0.2648099389169968,-0.06943662802811719,0.3515951094391712,0.8168521005424728,-0.19952579597396,0.2253746520668217,0.6398648892642752,0.6844448995808317,-0.1715960201916368,-0.05886434891571053,0.01073827487428464,0.4046917324056319,-0.4353688377313751,0.02058291846623641,-0.215922766362343,862.6739926739926,859.4505494505495,831.2454212454213,840.9157509157509,835.2747252747253,0.227173,0.435059,0.848694,3.020630,3.887939,12.538605,1,1,1,1,1,92.484375
2017-04-05 11:44:58.545,1.282625311760138,-0.2154252203095272,0.171236436714612,0.1785281950095714,0.8681203348729742,-0.2648099389169968,-0.06943662802811719,0.3515951094391712,0.8168521005424728,-0.19952579597396,0.2253746520668217,0.6398648892642752,0.6844448995808317,-0.1715960201916368,-0.05886434891571053,0.01073827487428464,0.4046917324056319,-0.4353688377313751,0.02058291846623641,-0.215922766362343,913.040293040293,861.8681318681319,832.8571428571429,847.3626373626374,853.4065934065934,0.227173,0.435059,0.848694,3.020630,3.887939,12.538605,1,1,1,1,1,92.484375
2017-04-05 11:44:58.548,1.282625311760138,-0.2154252203095272,0.171236436714612,0.1785281950095714,0.8681203348729742,-0.2648099389169968,-0.06943662802811719,0.3515951094391712,0.8168521005424728,-0.19952579597396,0.2253746520668217,0.6398648892642752,0.6844448995808317,-0.1715960201916368,-0.05886434891571053,0.01073827487428464,0.4046917324056319,-0.4353688377313751,0.02058291846623641,-0.215922766362343,922.3076923076924,863.0769230769231,842.5274725274726,860.2564102564103,869.92673992674,0.227173,0.435059,0.848694,3.020630,3.887939,12.538605,1,1,1,1,1,92.484375
2017-04-05 11:44:58.549,1.282625311760138,-0.2154252203095272,0.171236436714612,0.1785281950095714,0.8681203348729742,-0.2648099389169968,-0.06943662802811719,0.3515951094391712,0.8168521005424728,-0.19952579597396,0.2253746520668217,0.6398648892642752,0.6844448995808317,-0.1715960201916368,-0.05886434891571053,0.01073827487428464,0.4046917324056319,-0.4353688377313751,0.02058291846623641,-0.215922766362343,892.0879120879121,860.2564102564103,836.8864468864469,854.6153846153846,853.0036630036631,0.227173,0.435059,0.848694,3.020630,3.887939,12.538605,1,1,1,1,1,92.484375
2017-04-05 11:44:58.549,1.282625311760138,-0.2154252203095272,0.171236436714612,0.1785281950095714,0.8681203348729742,-0.2648099389169968,-0.06943662802811719,0.3515951094391712,0.8168521005424728,-0.19952579597396,0.2253746520668217,0.6398648892642752,0.6844448995808317,-0.1715960201916368,-0.05886434891571053,0.01073827487428464,0.4046917324056319,-0.4353688377313751,0.02058291846623641,-0.215922766362343,877.985347985348,865.0915750915751,829.2307692307693,840.9157509157509,802.6373626373627,0.242065,0.488525,0.870422,7.858124,1.719666,15.940552,1,1,1,1,1,92.484375
2017-04-05 11:44:58.549,1.282625311760138,-0.2154252203095272,0.171236436714612,0.1785281950095714,0.8681203348729742,-0.2648099389169968,-0.06943662802811719,0.3515951094391712,0.8168521005424728,-0.19952579597396,0.2253746520668217,0.6398648892642752,0.6844448995808317,-0.1715960201916368,-0.05886434891571053,0.01073827487428464,0.4046917324056319,-0.4353688377313751,0.02058291846623641,-0.215922766362343,898.9377289377289,859.8534798534798,834.8717948717949,853.4065934065934,817.948717948718,0.242065,0.488525,0.870422,7.858124,1.719666,15.940552,1,1,1,1,1,92.484375
2017-04-05 11:44:58.550,1.282625311760138,-0.2154252203095272,0.171236436714612,0.1785281950095714,0.8681203348729742,-0.2648099389169968,-0.06943662802811719,0.3515951094391712,0.8168521005424728,-0.19952579597396,0.2253746520668217,0.6398648892642752,0.6844448995808317,-0.1715960201916368,-0.05886434891571053,0.01073827487428464,0.4046917324056319,-0.4353688377313751,0.02058291846623641,-0.215922766362343,894.1025641025641,853.4065934065934,838.0952380952381,854.6153846153846,835.2747252747253,0.242065,0.488525,0.870422,7.858124,1.719666,15.940552,1,1,1,1,1,92.484375
2017-04-05 11:44:58.550,1.282625311760138,-0.2154252203095272,0.171236436714612,0.1785281950095714,0.8681203348729742,-0.2648099389169968,-0.06943662802811719,0.3515951094391712,0.8168521005424728,-0.19952579597396,0.2253746520668217,0.6398648892642752,0.6844448995808317,-0.1715960201916368,-0.05886434891571053,0.01073827487428464,0.4046917324056319,-0.4353688377313751,0.02058291846623641,-0.215922766362343,872.7472527472528,859.047619047619,834.0659340659341,853.8095238095239,855.0183150183151,0.242065,0.488525,0.870422,7.858124,1.719666,15.940552,1,1,1,1,1,92.484375
2017-04-05 11:44:58.550,1.282625311760138,-0.2154252203095272,0.171236436714612,0.1785281950095714,0.8681203348729742,-0.2648099389169968,-0.06943662802811719,0.3515951094391712,0.8168521005424728,-0.19952579597396,0.2253746520668217,0.6398648892642752,0.6844448995808317,-0.1715960201916368,-0.05886434891571053,0.01073827487428464,0.4046917324056319,-0.4353688377313751,0.02058291846623641,-0.215922766362343,865.0915750915751,857.4358974358975,840.1098901098901,850.989010989011,854.2124542124542,0.242065,0.488525,0.870422,7.858124,1.719666,15.940552,1,1,1,1,1,92.484375
2017-04-05 11:44:58.551,1.282625311760138,-0.2154252203095272,0.171236436714612,0.1785281950095714,0.8681203348729742,-0.2648099389169968,-0.06943662802811719,0.3515951094391712,0.8168521005424728,-0.19952579597396,0.2253746520668217,0.6398648892642752,0.6844448995808317,-0.1715960201916368,-0.05886434891571053,0.01073827487428464,0.4046917324056319,-0.4353688377313751,0.02058291846623641,-0.215922766362343,878.3882783882784,857.032967032967,845.3479853479854,840.5128205128206,826.007326007326,0.242065,0.488525,0.870422,7.858124,1.719666,15.940552,1,1,1,1,1,92.484375
2017-04-05 11:44:58.551,1.282625311760138,-0.2154252203095272,0.171236436714612,0.1785281950095714,0.8681203348729742,-0.2648099389169968,-0.06943662802811719,0.3515951094391712,0.8168521005424728,-0.19952579597396,0.2253746520668217,0.6398648892642752,0.6844448995808317,-0.1715960201916368,-0.05886434891571053,0.01073827487428464,0.4046917324056319,-0.4353688377313751,0.02058291846623641,-0.215922766362343,910.2197802197802,859.047619047619,839.3040293040293,864.2857142857143,846.5567765567765,0.242065,0.488525,0.870422,7.858124,1.719666,15.940552,1,1,1,1,1,92.484375
2017-04-05 11:44:58.551,1.282625311760138,-0.2154252203095272,0.171236436714612,0.1785281950095714,0.8681203348729742,-0.2648099389169968,-0.06943662802811719,0.3515951094391712,0.8168521005424728,-0.19952579597396,0.2253746520668217,0.6398648892642752,0.6844448995808317,-0.1715960201916368,-0.05886434891571053,0.01073827487428464,0.4046917324056319,-0.4353688377313751,0.02058291846623641,-0.215922766362343,904.5787545787546,860.2564102564103,835.2747252747253,872.3443223443223,868.3150183150184,0.242065,0.488525,0.870422,7.858124,1.719666,15.940552,1,1,1,1,1,92.484375
2017-04-05 11:44:58.551,1.282625311760138,-0.2154252203095272,0.171236436714612,0.1785281950095714,0.8681203348729742,-0.2648099389169968,-0.06943662802811719,0.3515951094391712,0.8168521005424728,-0.19952579597396,0.2253746520668217,0.6398648892642752,0.6844448995808317,-0.1715960201916368,-0.05886434891571053,0.01073827487428464,0.4046917324056319,-0.4353688377313751,0.02058291846623641,-0.215922766362343,875.9706959706959,865.8974358974359,839.7069597069598,863.0769230769231,830.4395604395604,0.242065,0.488525,0.870422,7.858124,1.719666,15.940552,1,1,1,1,1,92.484375
2017-04-05 11:44:58.552,1.282625311760138,-0.2154252203095272,0.171236436714612,0.1785281950095714,0.8681203348729742,-0.2648099389169968,-0.06943662802811719,0.3515951094391712,0.8168521005424728,-0.19952579597396,0.2253746520668217,0.6398648892642752,0.6844448995808317,-0.1715960201916368,-0.05886434891571053,0.01073827487428464,0.4046917324056319,-0.4353688377313751,0.02058291846623641,-0.215922766362343,860.2564102564103,859.4505494505495,846.5567765567765,861.8681318681319,812.3076923076924,0.242065,0.488525,0.870422,7.858124,1.719666,15.940552,1,1,1,1,1,92.484375
2017-04-05 11:44:58.552,1.282625311760138,-0.2154252203095272,0.171236436714612,0.1785281950095714,0.8681203348729742,-0.2648099389169968,-0.06943662802811719,0.3515951094391712,0.8168521005424728,-0.19952579597396,0.2253746520668217,0.6398648892642752,0.6844448995808317,-0.1715960201916368,-0.05886434891571053,0.01073827487428464,0.4046917324056319,-0.4353688377313751,0.02058291846623641,-0.215922766362343,904.981684981685,857.4358974358975,851.7948717948718,854.2124542124542,849.3772893772895,0.242065,0.488525,0.870422,7.858124,1.719666,15.940552,1,1,1,1,1,92.484375
2017-04-05 11:44:58.552,1.282625311760138,-0.2154252203095272,0.171236436714612,0.1785281950095714,0.8681203348729742,-0.2648099389169968,-0.06943662802811719,0.3515951094391712,0.8168521005424728,-0.19952579597396,0.2253746520668217,0.6398648892642752,0.6844448995808317,-0.1715960201916368,-0.05886434891571053,0.01073827487428464,0.4046917324056319,-0.4353688377313751,0.02058291846623641,-0.215922766362343,925.934065934066,867.5091575091575,853.0036630036631,855.8241758241759,850.989010989011,0.242065,0.488525,0.870422,7.858124,1.719666,15.940552,1,1,1,1,1,92.484375
2017-04-05 11:44:58.553,1.282625311760138,-0.2154252203095272,0.171236436714612,0.1785281950095714,0.8681203348729742,-0.2648099389169968,-0.06943662802811719,0.3515951094391712,0.8168521005424728,-0.19952579597396,0.2253746520668217,0.6398648892642752,0.6844448995808317,-0.1715960201916368,-0.05886434891571053,0.01073827487428464,0.4046917324056319,-0.4353688377313751,0.02058291846623641,-0.215922766362343,874.7619047619048,862.6739926739926,857.4358974358975,859.047619047619,841.7216117216118,0.240479,0.531250,0.869263,7.745972,0.082245,14.340515,1,1,1,1,1,92.484375
2017-04-05 11:44:58.553,1.282625311760138,-0.2154252203095272,0.171236436714612,0.1785281950095714,0.8681203348729742,-0.2648099389169968,-0.06943662802811719,0.3515951094391712,0.8168521005424728,-0.19952579597396,0.2253746520668217,0.6398648892642752,0.6844448995808317,-0.1715960201916368,-0.05886434891571053,0.01073827487428464,0.4046917324056319,-0.4353688377313751,0.02058291846623641,-0.215922766362343,860.2564102564103,859.047619047619,851.3919413919414,852.6007326007326,848.974358974359,0.240479,0.531250,0.869263,7.745972,0.082245,14.340515,1,1,1,1,1,92.484375
2017-04-05 11:44:58.553,1.282625311760138,-0.2154252203095272,0.171236436714612,0.1785281950095714,0.8681203348729742,-0.2648099389169968,-0.06943662802811719,0.3515951094391712,0.8168521005424728,-0.19952579597396,0.2253746520668217,0.6398648892642752,0.6844448995808317,-0.1715960201916368,-0.05886434891571053,0.01073827487428464,0.4046917324056319,-0.4353688377313751,0.02058291846623641,-0.215922766362343,896.1172161172161,864.6886446886447,847.7655677655678,855.4212454212454,841.3186813186813,0.240479,0.531250,0.869263,7.745972,0.082245,14.340515,1,1,1,1,1,92.484375
2017-04-05 11:44:58.554,1.282625311760138,-0.2154252203095272,0.171236436714612,0.1785281950095714,0.8681203348729742,-0.2648099389169968,-0.06943662802811719,0.3515951094391712,0.8168521005424728,-0.19952579597396,0.2253746520668217,0.6398648892642752,0.6844448995808317,-0.1715960201916368,-0.05886434891571053,0.01073827487428464,0.4046917324056319,-0.4353688377313751,0.02058291846623641,-0.215922766362343,909.4139194139194,862.2710622710623,850.989010989011,855.4212454212454,835.6776556776557,0.240479,0.531250,0.869263,7.745972,0.082245,14.340515,1,1,1,1,1,92.484375
2017-04-05 11:44:58.554,1.282625311760138,-0.2154252203095272,0.171236436714612,0.1785281950095714,0.8681203348729742,-0.2648099389169968,-0.06943662802811719,0.3515951094391712,0.8168521005424728,-0.19952579597396,0.2253746520668217,0.6398648892642752,0.6844448995808317,-0.1715960201916368,-0.05886434891571053,0.01073827487428464,0.4046917324056319,-0.4353688377313751,0.02058291846623641,-0.215922766362343,895.3113553113553,857.032967032967,848.5714285714286,853.8095238095239,801.8315018315019,0.240479,0.531250,0.869263,7.745972,0.082245,14.340515,1,1,1,1,1,92.484375
2017-04-05 11:44:58.554,1.282625311760138,-0.2154252203095272,0.171236436714612,0.1785281950095714,0.8681203348729742,-0.2648099389169968,-0.06943662802811719,0.3515951094391712,0.8168521005424728,-0.19952579597396,0.2253746520668217,0.6398648892642752,0.6844448995808317,-0.1715960201916368,-0.05886434891571053,0.01073827487428464,0.4046917324056319,-0.4353688377313751,0.02058291846623641,-0.215922766362343,881.6117216117217,859.047619047619,848.1684981684982,859.047619047619,831.2454212454213,0.240479,0.531250,0.869263,7.745972,0.082245,14.340515,1,1,1,1,1,92.484375
2017-04-05 11:44:58.554,1.282625311760138,-0.2154252203095272,0.171236436714612,0.1785281950095714,0.8681203348729742,-0.2648099389169968,-0.06943662802811719,0.3515951094391712,0.8168521005424728,-0.19952579597396,0.2253746520668217,0.6398648892642752,0.6844448995808317,-0.1715960201916368,-0.05886434891571053,0.01073827487428464,0.4046917324056319,-0.4353688377313751,0.02058291846623641,-0.215922766362343,884.4322344322345,855.8241758241759,851.3919413919414,855.4212454212454,837.2893772893773,0.240479,0.531250,0.869263,7.745972,0.082245,14.340515,1,1,1,1,1,92.484375
2017-04-05 11:44:58.555,1.282625311760138,-0.2154252203095272,0.171236436714612,0.1785281950095714,0.8681203348729742,-0.2648099389169968,-0.06943662802811719,0.3515951094391712,0.8168521005424728,-0.19952579597396,0.2253746520668217,0.6398648892642752,0.6844448995808317,-0.1715960201916368,-0.05886434891571053,0.01073827487428464,0.4046917324056319,-0.4353688377313751,0.02058291846623641,-0.215922766362343,899.3406593406594,853.0036630036631,850.5860805860806,855.0183150183151,806.6666666666667,0.240479,0.531250,0.869263,7.745972,0.082245,14.340515,1,1,1,1,1,92.484375
2017-04-05 11:44:58.555,1.282625311760138,-0.2154252203095272,0.171236436714612,0.1785281950095714,0.8681203348729742,-0.2648099389169968,-0.06943662802811719,0.3515951094391712,0.8168521005424728,-0.19952579597396,0.2253746520668217,0.6398648892642752,0.6844448995808317,-0.1715960201916368,-0.05886434891571053,0.01073827487428464,0.4046917324056319,-0.4353688377313751,0.02058291846623641,-0.215922766362343,897.7289377289378,865.0915750915751,851.7948717948718,857.032967032967,838.4981684981685,0.240479,0.531250,0.869263,7.745972,0.082245,14.340515,1,1,1,1,1,92.484375
2017-04-05 11:44:58.555,1.282625311760138,-0.2154252203095272,0.171236436714612,0.1785281950095714,0.8681203348729742,-0.2648099389169968,-0.06943662802811719,0.3515951094391712,0.8168521005424728,-0.19952579597396,0.2253746520668217,0.6398648892642752,0.6844448995808317,-0.1715960201916368,-0.05886434891571053,0.01073827487428464,0.4046917324056319,-0.4353688377313751,0.02058291846623641,-0.215922766362343,876.3736263736264,867.5091575091575,854.2124542124542,854.2124542124542,807.4725274725275,0.240479,0.531250,0.869263,7.745972,0.082245,14.340515,1,1,1,1,1,92.484375
2017-04-05 11:44:58.555,1.282625311760138,-0.2154252203095272,0.171236436714612,0.1785281950095714,0.8681203348729742,-0.2648099389169968,-0.06943662802811719,0.3515951094391712,0.8168521005424728,-0.19952579597396,0.2253746520668217,0.6398648892642752,0.6844448995808317,-0.1715960201916368,-0.05886434891571053,0.01073827487428464,0.4046917324056319,-0.4353688377313751,0.02058291846623641,-0.215922766362343,891.6849816849817,853.4065934065934,862.2710622710623,855.4212454212454,801.4285714285714,0.240479,0.531250,0.869263,7.745972,0.082245,14.340515,1,1,1,1,1,92.484375
2017-04-05 11:44:58.557,1.282625311760138,-0.2154252203095272,0.171236436714612,0.1785281950095714,0.8681203348729742,-0.2648099389169968,-0.06943662802811719,0.3515951094391712,0.8168521005424728,-0.1975950546985176,0.2566724456364713,0.6489114186457688,0.6844448995808317,-0.1715960201916368,-0.05886434891571053,0.01073827487428464,0.4046917324056319,-0.4353688377313751,0.02058291846623641,-0.215922766362343,891.6849816849817,853.4065934065934,862.2710622710623,855.4212454212454,801.4285714285714,0.240479,0.531250,0.869263,7.745972,0.082245,14.340515,1,1,1,1,1,92.484375
2017-04-05 11:44:58.557,1.282625311760138,-0.2154252203095272,0.171236436714612,0.1785281950095714,0.8681203348729742,-0.2648099389169968,-0.06943662802811719,0.3515951094391712,0.8168521005424728,-0.1975950546985176,0.2566724456364713,0.6489114186457688,0.6803018964929139,-0.1949483592587135,-0.06457352010674672,0.01444455362486157,0.4046917324056319,-0.4353688377313751,0.02058291846623641,-0.215922766362343,891.6849816849817,853.4065934065934,862.2710622710623,855.4212454212454,801.4285714285714,0.240479,0.531250,0.869263,7.745972,0.082245,14.340515,1,1,1,1,1,92.484375
2017-04-05 11:44:58.558,1.342594288511012,-0.221364573469538,0.08562114111663524,0.3467961949982602,0.8681203348729742,-0.2648099389169968,-0.06943662802811719,0.3515951094391712,0.8168521005424728,-0.1975950546985176,0.2566724456364713,0.6489114186457688,0.6803018964929139,-0.1949483592587135,-0.06457352010674672,0.01444455362486157,0.4046917324056319,-0.4353688377313751,0.02058291846623641,-0.215922766362343,891.6849816849817,853.4065934065934,862.2710622710623,855.4212454212454,801.4285714285714,0.240479,0.531250,0.869263,7.745972,0.082245,14.340515,1,1,1,1,1,92.484375
2017-04-05 11:44:58.558,1.342594288511012,-0.221364573469538,0.08562114111663524,0.3467961949982602,0.8758878666181666,-0.295946240445732,-0.09092740000339247,0.3509345748587002,0.8168521005424728,-0.1975950546985176,0.2566724456364713,0.6489114186457688,0.6803018964929139,-0.1949483592587135,-0.06457352010674672,0.01444455362486157,0.4046917324056319,-0.4353688377313751,0.02058291846623641,-0.215922766362343,891.6849816849817,853.4065934065934,862.2710622710623,855.4212454212454,801.4285714285714,0.240479,0.531250,0.869263,7.745972,0.082245,14.340515,1,1,1,1,1,92.484375
2017-04-05 11:44:58.558,1.342594288511012,-0.221364573469538,0.08562114111663524,0.3467961949982602,0.8758878666181666,-0.295946240445732,-0.09092740000339247,0.3509345748587002,0.8168521005424728,-0.1975950546985176,0.2566724456364713,0.6489114186457688,0.6803018964929139,-0.1949483592587135,-0.06457352010674672,0.01444455362486157,0.4209420616855049,-0.4368498030978466,0.01925968319129234,-0.2364160635976764,891.6849816849817,853.4065934065934,862.2710622710623,855.4212454212454,801.4285714285714,0.240479,0.531250,0.869263,7.745972,0.082245,14.340515,1,1,1,1,1,92.484375
2017-04-05 11:44:58.556,1.342594288511012,-0.221364573469538,0.08562114111663524,0.3467961949982602,0.8758878666181666,-0.295946240445732,-0.09092740000339247,0.3509345748587002,0.8168521005424728,-0.1975950546985176,0.2566724456364713,0.6489114186457688,0.6803018964929139,-0.1949483592587135,-0.06457352010674672,0.01444455362486157,0.4209420616855049,-0.4368498030978466,0.01925968319129234,-0.2364160635976764,916.2637362637363,851.7948717948718,858.2417582417582,858.6446886446887,819.1575091575091,0.240479,0.531250,0.869263,7.745972,0.082245,14.340515,1,1,1,1,1,92.484375
2017-04-05 11:44:58.559,1.342594288511012,-0.221364573469538,0.08562114111663524,0.3467961949982602,0.8758878666181666,-0.295946240445732,-0.09092740000339247,0.3509345748587002,0.8168521005424728,-0.1975950546985176,0.2566724456364713,0.6489114186457688,0.6803018964929139,-0.1949483592587135,-0.06457352010674672,0.01444455362486157,0.4209420616855049,-0.4368498030978466,0.01925968319129234,-0.2364160635976764,905.7875457875458,855.8241758241759,854.2124542124542,855.8241758241759,816.7399267399268,0.250732,0.536194,0.883240,1.517792,0.852356,4.650574,1,1,1,1,1,92.484375
2017-04-05 11:44:58.559,1.342594288511012,-0.221364573469538,0.08562114111663524,0.3467961949982602,0.8758878666181666,-0.295946240445732,-0.09092740000339247,0.3509345748587002,0.8168521005424728,-0.1975950546985176,0.2566724456364713,0.6489114186457688,0.6803018964929139,-0.1949483592587135,-0.06457352010674672,0.01444455362486157,0.4209420616855049,-0.4368498030978466,0.01925968319129234,-0.2364160635976764,875.1648351648352,858.2417582417582,853.0036630036631,852.6007326007326,805.0549450549451,0.250732,0.536194,0.883240,1.517792,0.852356,4.650574,1,1,1,1,1,92.484375
2017-04-05 11:44:58.559,1.342594288511012,-0.221364573469538,0.08562114111663524,0.3467961949982602,0.8758878666181666,-0.295946240445732,-0.09092740000339247,0.3509345748587002,0.8168521005424728,-0.1975950546985176,0.2566724456364713,0.6489114186457688,0.6803018964929139,-0.1949483592587135,-0.06457352010674672,0.01444455362486157,0.4209420616855049,-0.4368498030978466,0.01925968319129234,-0.2364160635976764,883.6263736263736,859.4505494505495,852.1978021978023,859.8534798534798,828.021978021978,0.250732,0.536194,0.883240,1.517792,0.852356,4.650574,1,1,1,1,1,92.484375
2017-04-05 11:44:58.559,1.342594288511012,-0.221364573469538,0.08562114111663524,0.3467961949982602,0.8758878666181666,-0.295946240445732,-0.09092740000339247,0.3509345748587002,0.8168521005424728,-0.1975950546985176,0.2566724456364713,0.6489114186457688,0.6803018964929139,-0.1949483592587135,-0.06457352010674672,0.01444455362486157,0.4209420616855049,-0.4368498030978466,0.01925968319129234,-0.2364160635976764,917.0695970695971,862.2710622710623,859.047619047619,867.5091575091575,866.3003663003664,0.250732,0.536194,0.883240,1.517792,0.852356,4.650574,1,1,1,1,1,92.484375
2017-04-05 11:44:58.560,1.342594288511012,-0.221364573469538,0.08562114111663524,0.3467961949982602,0.8758878666181666,-0.295946240445732,-0.09092740000339247,0.3509345748587002,0.8168521005424728,-0.1975950546985176,0.2566724456364713,0.6489114186457688,0.6803018964929139,-0.1949483592587135,-0.06457352010674672,0.01444455362486157,0.4209420616855049,-0.4368498030978466,0.01925968319129234,-0.2364160635976764,911.4285714285714,859.4505494505495,866.7032967032967,871.941391941392,857.032967032967,0.250732,0.536194,0.883240,1.517792,0.852356,4.650574,1,1,1,1,1,92.484375
2017-04-05 11:44:58.560,1.342594288511012,-0.221364573469538,0.08562114111663524,0.3467961949982602,0.8758878666181666,-0.295946240445732,-0.09092740000339247,0.3509345748587002,0.8168521005424728,-0.1975950546985176,0.2566724456364713,0.6489114186457688,0.6803018964929139,-0.1949483592587135,-0.06457352010674672,0.01444455362486157,0.4209420616855049,-0.4368498030978466,0.01925968319129234,-0.2364160635976764,869.1208791208792,858.6446886446887,869.92673992674,870.3296703296703,836.0805860805862,0.250732,0.536194,0.883240,1.517792,0.852356,4.650574,1,1,1,1,1,92.484375
2017-04-05 11:44:58.560,1.342594288511012,-0.221364573469538,0.08562114111663524,0.3467961949982602,0.8758878666181666,-0.295946240445732,-0.09092740000339247,0.3509345748587002,0.8168521005424728,-0.1975950546985176,0.2566724456364713,0.6489114186457688,0.6803018964929139,-0.1949483592587135,-0.06457352010674672,0.01444455362486157,0.4209420616855049,-0.4368498030978466,0.01925968319129234,-0.2364160635976764,854.2124542124542,861.8681318681319,869.5238095238095,865.8974358974359,822.3809523809524,0.250732,0.536194,0.883240,1.517792,0.852356,4.650574,1,1,1,1,1,92.484375
2017-04-05 11:44:58.560,1.342594288511012,-0.221364573469538,0.08562114111663524,0.3467961949982602,0.8758878666181666,-0.295946240445732,-0.09092740000339247,0.3509345748587002,0.8168521005424728,-0.1975950546985176,0.2566724456364713,0.6489114186457688,0.6803018964929139,-0.1949483592587135,-0.06457352010674672,0.01444455362486157,0.4209420616855049,-0.4368498030978466,0.01925968319129234,-0.2364160635976764,884.8351648351648,859.047619047619,859.8534798534798,865.4945054945056,840.9157509157509,0.250732,0.536194,0.883240,1.517792,0.852356,4.650574,1,1,1,1,1,92.484375
2017-04-05 11:44:58.561,1.342594288511012,-0.221364573469538,0.08562114111663524,0.3467961949982602,0.8758878666181666,-0.295946240445732,-0.09092740000339247,0.3509345748587002,0.8168521005424728,-0.1975950546985176,0.2566724456364713,0.6489114186457688,0.6803018964929139,-0.1949483592587135,-0.06457352010674672,0.01444455362486157,0.4209420616855049,-0.4368498030978466,0.01925968319129234,-0.2364160635976764,896.5201465201466,858.6446886446887,865.0915750915751,865.4945054945056,834.8717948717949,0.250732,0.536194,0.883240,1.517792,0.852356,4.650574,1,1,1,1,1,92.484375
2017-04-05 11:44:58.561,1.342594288511012,-0.221364573469538,0.08562114111663524,0.3467961949982602,0.8758878666181666,-0.295946240445732,-0.09092740000339247,0.3509345748587002,0.8168521005424728,-0.1975950546985176,0.2566724456364713,0.6489114186457688,0.6803018964929139,-0.1949483592587135,-0.06457352010674672,0.01444455362486157,0.4209420616855049,-0.4368498030978466,0.01925968319129234,-0.2364160635976764,852.6007326007326,856.6300366300367,866.3003663003664,865.4945054945056,796.1904761904763,0.250732,0.536194,0.883240,1.517792,0.852356,4.650574,1,1,1,1,1,92.484375
2017-04-05 11:44:58.561,1.342594288511012,-0.221364573469538,0.08562114111663524,0.3467961949982602,0.8758878666181666,-0.295946240445732,-0.09092740000339247,0.3509345748587002,0.8168521005424728,-0.1975950546985176,0.2566724456364713,0.6489114186457688,0.6803018964929139,-0.1949483592587135,-0.06457352010674672,0.01444455362486157,0.4209420616855049,-0.4368498030978466,0.01925968319129234,-0.2364160635976764,842.1245421245421,854.6153846153846,861.4652014652015,868.3150183150184,789.3406593406594,0.250732,0.536194,0.883240,1.517792,0.852356,4.650574,1,1,1,1,1,92.484375
2017-04-05 11:44:58.561,1.342594288511012,-0.221364573469538,0.08562114111663524,0.3467961949982602,0.8758878666181666,-0.295946240445732,-0.09092740000339247,0.3509345748587002,0.8168521005424728,-0.1975950546985176,0.2566724456364713,0.6489114186457688,0.6803018964929139,-0.1949483592587135,-0.06457352010674672,0.01444455362486157,0.4209420616855049,-0.4368498030978466,0.01925968319129234,-0.2364160635976764,879.1941391941392,863.0769230769231,866.3003663003664,860.6593406593407,809.0842490842491,0.250732,0.536194,0.883240,1.517792,0.852356,4.650574,1,1,1,1,1,92.484375
2017-04-05 11:44:58.562,1.342594288511012,-0.221364573469538,0.08562114111663524,0.3467961949982602,0.8758878666181666,-0.295946240445732,-0.09092740000339247,0.3509345748587002,0.8168521005424728,-0.1975950546985176,0.2566724456364713,0.6489114186457688,0.6803018964929139,-0.1949483592587135,-0.06457352010674672,0.01444455362486157,0.4209420616855049,-0.4368498030978466,0.01925968319129234,-0.2364160635976764,886.8498168498169,863.8827838827839,870.3296703296703,861.8681318681319,807.4725274725275,0.283203,0.507141,0.859314,-7.566528,0.620575,-1.330872,1,1,1,1,1,92.484375
2017-04-05 11:44:58.562,1.342594288511012,-0.221364573469538,0.08562114111663524,0.3467961949982602,0.8758878666181666,-0.295946240445732,-0.09092740000339247,0.3509345748587002,0.8168521005424728,-0.1975950546985176,0.2566724456364713,0.6489114186457688,0.6803018964929139,-0.1949483592587135,-0.06457352010674672,0.01444455362486157,0.4209420616855049,-0.4368498030978466,0.01925968319129234,-0.2364160635976764,848.1684981684982,854.6153846153846,871.1355311355312,872.3443223443223,799.8168498168499,0.283203,0.507141,0.859314,-7.566528,0.620575,-1.330872,1,1,1,1,1,92.484375
2017-04-05 11:44:58.562,1.342594288511012,-0.221364573469538,0.08562114111663524,0.3467961949982602,0.8758878666181666,-0.295946240445732,-0.09092740000339247,0.3509345748587002,0.8168521005424728,-0.1975950546985176,0.2566724456364713,0.6489114186457688,0.6803018964929139,-0.1949483592587135,-0.06457352010674672,0.01444455362486157,0.4209420616855049,-0.4368498030978466,0.01925968319129234,-0.2364160635976764,823.1868131868132,851.7948717948718,869.1208791208792,875.5677655677656,794.1758241758242,0.283203,0.507141,0.859314,-7.566528,0.620575,-1.330872,1,1,1,1,1,92.484375
2017-04-05 11:44:58.562,1.342594288511012,-0.221364573469538,0.08562114111663524,0.3467961949982602,0.8758878666181666,-0.295946240445732,-0.09092740000339247,0.3509345748587002,0.8168521005424728,-0.1975950546985176,0.2566724456364713,0.6489114186457688,0.6803018964929139,-0.1949483592587135,-0.06457352010674672,0.01444455362486157,0.4209420616855049,-0.4368498030978466,0.01925968319129234,-0.2364160635976764,843.7362637362637,854.6153846153846,870.7326007326008,876.7765567765568,814.7252747252747,0.283203,0.507141,0.859314,-7.566528,0.620575,-1.330872,1,1,1,1,1,92.484375
2017-04-05 11:44:58.563,1.342594288511012,-0.221364573469538,0.08562114111663524,0.3467961949982602,0.8758878666181666,-0.295946240445732,-0.09092740000339247,0.3509345748587002,0.8168521005424728,-0.1975950546985176,0.2566724456364713,0.6489114186457688,0.6803018964929139,-0.1949483592587135,-0.06457352010674672,0.01444455362486157,0.4209420616855049,-0.4368498030978466,0.01925968319129234,-0.2364160635976764,877.1794871794872,861.0622710622711,861.0622710622711,870.7326007326008,807.0695970695971,0.283203,0.507141,0.859314,-7.566528,0.620575,-1.330872,1,1,1,1,1,92.484375
2017-04-05 11:44:58.563,1.342594288511012,-0.221364573469538,0.08562114111663524,0.3467961949982602,0.8758878666181666,-0.295946240445732,-0.09092740000339247,0.3509345748587002,0.8168521005424728,-0.1975950546985176,0.2566724456364713,0.6489114186457688,0.6803018964929139,-0.1949483592587135,-0.06457352010674672,0.01444455362486157,0.4209420616855049,-0.4368498030978466,0.01925968319129234,-0.2364160635976764,870.7326007326008,861.4652014652015,853.4065934065934,874.7619047619048,793.7728937728938,0.283203,0.507141,0.859314,-7.566528,0.620575,-1.330872,1,1,1,1,1,92.484375
2017-04-05 11:44:58.563,1.342594288511012,-0.221364573469538,0.08562114111663524,0.3467961949982602,0.8758878666181666,-0.295946240445732,-0.09092740000339247,0.3509345748587002,0.8168521005424728,-0.1975950546985176,0.2566724456364713,0.6489114186457688,0.6803018964929139,-0.1949483592587135,-0.06457352010674672,0.01444455362486157,0.4209420616855049,-0.4368498030978466,0.01925968319129234,-0.2364160635976764,818.3516483516484,859.4505494505495,857.032967032967,877.1794871794872,795.3846153846154,0.283203,0.507141,0.859314,-7.566528,0.620575,-1.330872,1,1,1,1,1,92.484375
2017-04-05 11:44:58.563,1.342594288511012,-0.221364573469538,0.08562114111663524,0.3467961949982602,0.8758878666181666,-0.295946240445732,-0.09092740000339247,0.3509345748587002,0.8168521005424728,-0.1975950546985176,0.2566724456364713,0.6489114186457688,0.6803018964929139,-0.1949483592587135,-0.06457352010674672,0.01444455362486157,0.4209420616855049,-0.4368498030978466,0.01925968319129234,-0.2364160635976764,820.3663003663004,855.8241758241759,865.0915750915751,864.6886446886447,844.9450549450549,0.283203,0.507141,0.859314,-7.566528,0.620575,-1.330872,1,1,1,1,1,92.484375
